# [ph/s/.1%bw/mm^2] (C-aligned, inner loop is vs Photon Energy, outer loop vs Vertical Position)
#12707.91 #Initial Photon Energy [eV]
#12707.91 #Final Photon Energy [eV]
#1 #Number of points vs Photon Energy
#-0.001576482775810396 #Initial Horizontal Position [m]
#0.0015724870421438054 #Final Horizontal Position [m]
#84 #Number of points vs Horizontal Position
#-0.00042728771880993046 #Initial Vertical Position [m]
#0.0004272877188099308 #Final Vertical Position [m]
#84 #Number of points vs Vertical Position
 558.9277954101562
 423.7164001464844
 465.9960021972656
 512.2445068359375
 485.13055419921875
 521.9424438476562
 540.4649658203125
 553.3309936523438
 623.1383666992188
 617.1343383789062
 666.8223876953125
 649.84765625
 787.898193359375
 867.3046264648438
 881.9771118164062
 1002.18212890625
 1124.9671630859375
 1281.5755615234375
 1442.306884765625
 1577.095458984375
 2017.136962890625
 2096.325439453125
 3317.13623046875
 4476.3349609375
 2605.29052734375
 4294.0625
 4160.318359375
 5572.21630859375
 12480.1865234375
 9760.3857421875
 30822.05859375
 49148.23046875
 35781.6796875
 257142192.0
 3600906240.0
 1933429248.0
 2639504896.0
 2459442432.0
 141612892160.0
 813826048000.0
 1946541883392.0
 2649351782400.0
 1542583091200.0
 1155927900160.0
 499206881280.0
 110497488896.0
 2941461504.0
 2000793216.0
 2292824832.0
 7111634944.0
 2525659392.0
 23303.23828125
 24316.529296875
 5238.66162109375
 10903.2158203125
 9410.720703125
 3283.353759765625
 3681.813720703125
 6079.79248046875
 3015.58349609375
 2651.42236328125
 2039.7960205078125
 1984.1885986328125
 1555.5609130859375
 1404.524658203125
 1317.986572265625
 1007.8312377929688
 1016.7919921875
 882.984375
 785.1815795898438
 783.607421875
 678.253662109375
 694.115966796875
 595.2152709960938
 626.0929565429688
 549.331787109375
 521.3069458007812
 524.7537841796875
 492.6961669921875
 489.6906433105469
 487.3863220214844
 462.33349609375
 517.0493774414062
 452.8046875
 198127.828125
 199264.9375
 203509.0
 206251.0625
 210980.5
 220260.28125
 226853.90625
 238805.921875
 250268.53125
 264669.46875
 281857.4375
 303551.0625
 324665.34375
 354073.03125
 388715.28125
 428130.84375
 481346.5
 535490.6875
 610745.5
 699207.9375
 809071.5625
 948543.3125
 1285549.375
 1932922.0
 1077071.75
 1800889.875
 1753102.375
 2313957.0
 5245770.0
 4140449.25
 12395000.0
 19447840.0
 14055111.0
 56268046336.0
 994342797312.0
 824348246016.0
 956011446272.0
 909532397568.0
 58989513539584.0
 337433132531712.0
 811694594981888.0
 1116714179756032.0
 707576064901120.0
 536856450039808.0
 232446532517888.0
 51298896445440.0
 1266596315136.0
 905525067776.0
 1013322743808.0
 1575287652352.0
 1059901341696.0
 12905472.0
 5785994.0
 2061317.625
 4638764.0
 3932318.5
 1461482.25
 1685010.375
 2292695.0
 1225576.875
 1064622.5
 906835.4375
 778110.8125
 673550.875
 592736.4375
 524074.75
 464475.71875
 421021.3125
 378674.90625
 349362.90625
 321722.6875
 300513.625
 276728.96875
 263060.28125
 249631.5
 235074.40625
 227867.984375
 217870.78125
 212162.4375
 205219.234375
 203327.359375
 199773.265625
 199160.78125
 198095.515625
 106434.3671875
 106340.65625
 108400.7578125
 109963.1875
 113139.5234375
 117610.2734375
 120018.5625
 127785.6953125
 133901.40625
 142119.921875
 150303.03125
 162730.59375
 174162.171875
 190876.25
 208236.234375
 228638.484375
 257856.0625
 288201.78125
 329770.75
 376653.53125
 436006.21875
 510223.4375
 724076.0625
 1139608.125
 510868.5625
 966304.75
 839470.875
 1136583.25
 3009502.5
 2038282.0
 7315101.5
 11520123.0
 7723540.0
 26850715648.0
 468296335360.0
 375269195776.0
 460461735936.0
 503501651968.0
 36208310747136.0
 208773847187456.0
 508234821533696.0
 680418516926464.0
 427024640376832.0
 322510067335168.0
 142576673882112.0
 32187399274496.0
 794374045696.0
 625521065984.0
 685289963520.0
 996923342848.0
 655105523712.0
 7015517.0
 2854746.0
 716133.9375
 2750082.5
 2304966.5
 622598.1875
 852096.8125
 1366802.875
 656987.5625
 558358.875
 477562.28125
 409709.53125
 355244.28125
 313512.90625
 276429.75
 245818.796875
 223013.25
 200331.5
 185410.921875
 169454.421875
 159013.109375
 147441.109375
 139092.671875
 132121.0625
 125096.4140625
 120267.8203125
 115446.03125
 112494.546875
 109244.8359375
 107857.46875
 105384.2109375
 106886.75
 105559.28125
 26674.775390625
 27254.9453125
 27744.931640625
 27944.98046875
 28720.390625
 29850.255859375
 30537.158203125
 32548.8125
 33956.38671875
 36349.85546875
 38384.13671875
 41588.8671875
 43960.12890625
 48750.54296875
 52926.5078125
 57790.64453125
 65812.953125
 72459.6875
 83402.5390625
 95093.6328125
 110292.84375
 129368.2265625
 183426.859375
 348068.25
 101560.7265625
 273600.53125
 157258.734375
 259542.734375
 918518.0
 461325.40625
 2218492.25
 3498936.5
 2053892.625
 8731911168.0
 146634620928.0
 83636609024.0
 61952622592.0
 104577097728.0
 12054492610560.0
 68837634473984.0
 161633997422592.0
 206831431450624.0
 163307507941376.0
 138516101070848.0
 68185269207040.0
 16737032470528.0
 336170221568.0
 330973446144.0
 343319052288.0
 388635688960.0
 239082995712.0
 1610316.25
 659300.375
 92599.3125
 922349.875
 659485.5
 79697.1328125
 254409.96875
 439223.15625
 154495.21875
 139490.046875
 119776.140625
 102701.15625
 89633.34375
 78668.171875
 69311.4296875
 62594.2421875
 56272.46484375
 50481.25390625
 47052.578125
 42993.2734375
 40188.57421875
 37172.2265625
 35304.66796875
 33521.11328125
 31621.916015625
 30863.7265625
 29412.63671875
 28741.015625
 27493.439453125
 27462.193359375
 26815.142578125
 26730.171875
 26550.388671875
 27833.57421875
 28856.43359375
 28696.091796875
 29196.005859375
 30032.146484375
 30617.05859375
 31650.087890625
 33428.625
 34688.1328125
 37160.1015625
 38956.23828125
 42176.359375
 44601.2890625
 48303.38671875
 53060.77734375
 58061.7421875
 64427.04296875
 72239.0234375
 81343.21875
 93731.28125
 106421.4921875
 124884.7265625
 93821.0390625
 225594.171875
 206657.640625
 365880.34375
 274246.25
 469948.09375
 814175.5625
 801295.6875
 1428353.5
 2090465.25
 1211533.75
 23223713792.0
 409909657600.0
 272506028032.0
 143440674816.0
 84054933504.0
 5301815214080.0
 22835447726080.0
 37264478437376.0
 65236686077952.0
 172836949852160.0
 182853300125696.0
 93939533086720.0
 22971936669696.0
 313046728704.0
 297649405952.0
 262880559104.0
 233951641600.0
 137776300032.0
 1491984.25
 274477.40625
 719145.0625
 924604.9375
 312289.21875
 224661.265625
 473130.6875
 322845.40625
 96332.734375
 161591.15625
 138334.609375
 116663.3359375
 102251.0078125
 88806.3984375
 77705.5234375
 70284.625
 62697.15625
 56228.32421875
 52164.0859375
 47260.78515625
 44290.14453125
 40817.578125
 38836.90625
 36327.1875
 34125.390625
 33357.14453125
 31578.53125
 30737.359375
 29950.3125
 28818.82421875
 29045.279296875
 28098.896484375
 28357.27734375
 92589.9609375
 94919.1015625
 95954.875
 97507.453125
 100137.578125
 103234.984375
 107336.4375
 112693.5078125
 116996.53125
 124798.90625
 132618.5625
 142007.75
 153651.0625
 166468.21875
 181853.203125
 202737.984375
 224335.890625
 251983.53125
 285789.15625
 329085.96875
 377058.9375
 442992.21875
 531785.5625
 774933.0625
 620767.0625
 916509.5625
 979957.0625
 1301118.5
 2312361.5
 2305001.0
 5021850.0
 7820416.0
 5927699.5
 48710279168.0
 869741297664.0
 629940551680.0
 675975725056.0
 580566908928.0
 23749365596160.0
 126729075032064.0
 274141538156544.0
 392622992523264.0
 308279364288512.0
 278393203458048.0
 133745944297472.0
 31760616259584.0
 703275008000.0
 480676675584.0
 472158961664.0
 760105467904.0
 508423503872.0
 7330162.5
 2803323.25
 1508579.625
 1860839.75
 1477333.125
 892380.5
 928791.0
 877776.8125
 534014.9375
 507414.1875
 432007.40625
 369080.1875
 323050.21875
 281419.0625
 249246.96875
 223167.296875
 200570.09375
 181657.125
 166272.109375
 153274.34375
 141933.140625
 132018.421875
 124936.7265625
 117375.4375
 111800.8359375
 107160.7734375
 103230.109375
 100014.4609375
 97861.3671875
 95469.6015625
 95068.078125
 92924.421875
 93807.921875
 205329.671875
 209630.65625
 210765.640625
 216966.578125
 222229.203125
 228080.796875
 237479.96875
 247082.734375
 260689.296875
 276127.21875
 293345.28125
 316509.59375
 339226.71875
 371051.59375
 404554.53125
 448122.75
 501473.90625
 561858.125
 637244.0625
 736363.3125
 845425.6875
 994543.4375
 1319992.0
 1975988.125
 1168223.0
 1907106.0
 1909712.0
 2501415.25
 5448333.0
 4473998.5
 12771694.0
 20102950.0
 14226543.0
 77928087552.0
 1387671715840.0
 1067113054208.0
 1158853427200.0
 1116111634432.0
 64226110472192.0
 355833376407552.0
 827365856903168.0
 1146000219570176.0
 737488767287296.0
 584452841406464.0
 261130857480192.0
 59390241538048.0
 1574581043200.0
 1143276306432.0
 1239191257088.0
 1933713997824.0
 1302072655872.0
 17299140.0
 5956872.0
 2006358.25
 4489282.5
 3947735.25
 1575336.375
 1714721.5
 2256799.25
 1261117.125
 1094120.125
 936923.5625
 801474.625
 699179.25
 610717.875
 541527.8125
 485073.1875
 435916.4375
 397896.375
 363350.625
 333785.0
 310622.78125
 290042.71875
 273264.53125
 256599.40625
 246873.296875
 234076.078125
 227274.609375
 220396.109375
 214203.453125
 209787.046875
 208360.953125
 204802.453125
 205101.890625
 299449.71875
 302296.15625
 306762.03125
 314445.1875
 322338.96875
 331645.5625
 344552.0
 360452.84375
 379155.46875
 401618.875
 426626.71875
 457729.6875
 495091.03125
 538068.9375
 588675.625
 649434.5
 724886.0625
 814895.0625
 922444.4375
 1061234.125
 1226014.75
 1431864.75
 1853685.75
 3225763.0
 1465204.0
 2965876.5
 2293782.75
 3382949.5
 8887932.0
 5954394.5
 20725402.0
 32283756.0
 19857608.0
 102433292288.0
 1789491544064.0
 1205902245888.0
 1133069205504.0
 1375311101952.0
 92293822414848.0
 529508734074880.0
 1282921495265280.0
 1807314856181760.0
 1464040803008512.0
 1167291580416000.0
 510218895097856.0
 113532058206208.0
 2630945341440.0
 2190287306752.0
 2298330218496.0
 3113122267136.0
 2018118729728.0
 25000988.0
 5776900.0
 2150369.75
 8678159.0
 6180021.5
 1531026.125
 2814485.0
 3970232.0
 1675606.875
 1600769.875
 1366315.5
 1173702.875
 1021620.1875
 893114.25
 792393.25
 706817.125
 636956.125
 578615.0625
 527962.9375
 487419.6875
 453183.90625
 421951.28125
 398623.375
 374823.375
 358314.53125
 345268.5
 330382.875
 319389.5
 312847.53125
 305020.09375
 303995.25
 299595.84375
 299568.78125
 350030.65625
 355197.3125
 359222.4375
 365725.9375
 374298.21875
 385836.53125
 401399.53125
 420073.09375
 437518.125
 464394.28125
 492536.09375
 528490.0
 568455.3125
 618489.5
 673051.9375
 743383.375
 829609.75
 928275.5625
 1055501.125
 1208246.25
 1388792.75
 1626443.875
 1803551.875
 3488181.5
 1885855.375
 3768709.25
 2736409.5
 4396220.5
 10298098.0
 7611811.0
 21943666.0
 33213448.0
 20314012.0
 129272094720.0
 2243351019520.0
 1300489699328.0
 766656315392.0
 1078293889024.0
 79340175884288.0
 449187409821696.0
 1086153071525888.0
 1652871321878528.0
 1838128830611456.0
 1560321890189312.0
 685033794830336.0
 151325002170368.0
 2608420618240.0
 2240246710272.0
 2212629053440.0
 2690450456576.0
 1701805162496.0
 21581128.0
 4841097.5
 4664378.5
 11264670.0
 6270454.0
 1890444.25
 4168731.25
 4610808.5
 1681123.875
 1938372.875
 1648653.0
 1412209.875
 1228329.375
 1070682.75
 950690.875
 846403.9375
 761131.25
 691429.375
 628243.5
 579137.8125
 536727.6875
 500109.53125
 471397.1875
 442566.53125
 422802.15625
 405061.9375
 390213.8125
 378295.5
 367524.0
 359117.09375
 355858.0625
 351210.09375
 350635.875
 176499.03125
 177183.96875
 179387.234375
 184081.828125
 186628.703125
 193575.640625
 199644.21875
 209006.265625
 218869.453125
 231199.0625
 245773.3125
 264079.84375
 282464.875
 306428.90625
 334887.90625
 370194.3125
 411612.0
 460345.0
 521829.0625
 597985.25
 686222.9375
 801598.875
 851803.8125
 1542524.625
 1066619.875
 1879356.5
 1558288.75
 2380036.75
 4731287.0
 4127443.75
 9610494.0
 14404903.0
 10306488.0
 62797373440.0
 1091234758656.0
 705245609984.0
 555093393408.0
 437864890368.0
 33488352837632.0
 179608418779136.0
 403041073233920.0
 635580668968960.0
 775979525996544.0
 673351953547264.0
 300045039566848.0
 66755829432320.0
 947291750400.0
 713131229184.0
 639439273984.0
 879639265280.0
 569598607360.0
 6595394.5
 3655380.5
 3672135.25
 5259761.0
 2730013.0
 1319075.375
 2257208.25
 2061258.125
 844206.0
 1001795.875
 846990.1875
 725690.4375
 627394.8125
 545449.625
 483639.3125
 429856.5625
 387092.0625
 349363.1875
 318863.4375
 292995.6875
 271621.34375
 252597.125
 238675.53125
 224143.578125
 212988.234375
 203857.3125
 197019.546875
 189176.390625
 184626.59375
 180803.0625
 179368.4375
 176087.796875
 175057.109375
 12205.2294921875
 12484.9423828125
 12289.88671875
 12941.6982421875
 13017.0947265625
 13479.3232421875
 14338.0126953125
 14922.2158203125
 15850.875
 16859.9765625
 17968.61328125
 19661.330078125
 20835.314453125
 22952.33203125
 25362.068359375
 28133.1328125
 31522.95703125
 35861.0234375
 40589.58984375
 48118.16015625
 54964.01171875
 65458.40625
 117343.734375
 132768.046875
 75343.2890625
 91383.953125
 147399.703125
 148478.171875
 321069.6875
 295375.46875
 965219.5
 1711076.875
 2020876.75
 7863296512.0
 136222842880.0
 101104779264.0
 207061630976.0
 165142708224.0
 13577054322688.0
 64628679770112.0
 102162793234432.0
 89362180079616.0
 14417841356800.0
 16681806069760.0
 16674625421312.0
 6697866756096.0
 324195188736.0
 262866649088.0
 296067072000.0
 395163041792.0
 257361248256.0
 1342124.75
 1709958.375
 302160.0
 50097.18359375
 248419.1875
 155701.75
 44601.40234375
 95210.1015625
 100550.28125
 56288.56640625
 48364.14453125
 41693.1015625
 36866.94921875
 32139.998046875
 28820.626953125
 26022.84375
 23646.63671875
 21410.533203125
 19863.126953125
 18400.779296875
 16987.580078125
 15785.875
 15420.4365234375
 14106.3828125
 13763.8798828125
 13235.6787109375
 12893.3916015625
 12555.9423828125
 12245.9736328125
 11790.646484375
 12352.32421875
 11628.0048828125
 12080.486328125
 161680.015625
 162408.8125
 164916.375
 168419.890625
 172107.265625
 178438.25
 184965.078125
 191308.875
 202395.859375
 212212.75
 227793.25
 242185.78125
 261091.359375
 283463.09375
 308224.90625
 343160.84375
 381923.34375
 426815.53125
 483842.0
 556257.75
 637436.75
 747955.6875
 738736.6875
 1522531.125
 977013.3125
 1885499.75
 1370698.375
 2277877.0
 4838346.0
 3937439.25
 9832114.0
 14723595.0
 8269391.5
 95590531072.0
 1686322937856.0
 1059033513984.0
 457976807424.0
 610367963136.0
 40644999380992.0
 205203538182144.0
 429025256275968.0
 646288492199936.0
 902747767439360.0
 850332724756480.0
 407381104132096.0
 95115188109312.0
 1834213572608.0
 1607543685120.0
 1538019426304.0
 1709259620352.0
 1053784211456.0
 13457345.0
 1598991.5
 2210956.0
 4916662.0
 2513207.5
 930394.4375
 2054162.625
 1982731.125
 690804.125
 889754.625
 756068.8125
 650265.9375
 561753.5625
 494084.4375
 435364.75
 388392.0
 351797.5625
 317281.6875
 290035.75
 268014.34375
 245185.859375
 229676.921875
 215817.421875
 204615.0625
 194923.890625
 186677.53125
 180408.859375
 173496.296875
 169684.40625
 164661.5
 163844.59375
 161300.3125
 161271.21875
 242350.390625
 243563.921875
 247650.46875
 252727.046875
 258153.375
 266797.5
 277242.8125
 288502.59375
 304627.625
 320335.59375
 342955.875
 366496.0
 393450.8125
 431171.125
 467737.75
 521721.46875
 581486.0625
 652224.875
 737567.5625
 849987.8125
 978540.8125
 1146590.75
 1405878.25
 2090234.5
 1532200.875
 2355495.5
 2418160.25
 3249771.75
 6122687.5
 5761460.0
 13583036.0
 21228090.0
 16516109.0
 113101275136.0
 2000562552832.0
 1370377814016.0
 1514272980992.0
 1216852000768.0
 67815763607552.0
 360185117802496.0
 757562706231296.0
 1052209273896960.0
 796955609399296.0
 712100007641088.0
 342252824035328.0
 82121586638848.0
 1863376830464.0
 1280402915328.0
 1176419958784.0
 1980646293504.0
 1352685846528.0
 16524291.0
 7515900.0
 3673273.5
 4952894.5
 3931856.5
 2152313.0
 2357419.25
 2385945.75
 1372804.125
 1307459.125
 1114101.625
 956753.1875
 828308.3125
 726153.8125
 644313.3125
 573352.0625
 516221.1875
 468611.0625
 428501.375
 393827.84375
 364464.03125
 339921.28125
 320083.71875
 303236.875
 289505.75
 277279.6875
 266882.59375
 258633.515625
 252592.8125
 247037.59375
 244632.703125
 240623.53125
 241466.953125
 201178.703125
 200155.859375
 203517.578125
 208201.828125
 213612.640625
 220153.390625
 228911.078125
 239011.09375
 252124.5625
 265540.125
 283734.40625
 302525.8125
 326964.53125
 357208.65625
 388712.5625
 432129.875
 482109.0625
 540726.1875
 612337.5625
 706286.6875
 814961.3125
 953839.125
 1198856.375
 2199713.25
 959979.0625
 2050302.625
 1462116.875
 2273172.5
 6157274.0
 3964109.5
 14257035.0
 22184360.0
 13562228.0
 80126443520.0
 1393276878848.0
 905650634752.0
 720948428800.0
 962858909696.0
 67782049792000.0
 371237444386816.0
 852760119476224.0
 1158129475649536.0
 1033291687788544.0
 882399823003648.0
 409755281522688.0
 95266082390016.0
 2102462513152.0
 1811184746496.0
 1980908306432.0
 2375519567872.0
 1488989323264.0
 16020577.0
 3594835.5
 1360436.875
 5950689.5
 4052991.75
 909217.0
 1968880.875
 2715901.75
 1055904.875
 1061893.5
 906823.875
 780894.5625
 676252.0625
 594107.8125
 525998.0625
 470150.375
 425089.78125
 385058.71875
 351388.5625
 325311.90625
 298678.28125
 280254.0625
 264081.5
 249176.359375
 238757.734375
 228690.53125
 220768.0
 213310.4375
 207482.234375
 203193.59375
 201674.28125
 198121.71875
 199007.203125
 239326.046875
 241518.25
 243807.625
 248511.34375
 253761.484375
 262664.65625
 272421.0
 283651.0625
 299755.6875
 313551.21875
 335117.15625
 357067.25
 384573.59375
 420082.25
 456007.375
 505087.3125
 561645.4375
 628766.375
 711578.375
 816044.5
 938407.5
 1100737.625
 1189040.25
 2092122.375
 1471101.75
 2534014.0
 2177763.0
 3264269.25
 6418585.0
 5674628.0
 13281606.0
 20080180.0
 14516024.0
 103207690240.0
 1800764653568.0
 1127402176512.0
 824625201152.0
 733622108160.0
 53364222066688.0
 279604937883648.0
 589031612088320.0
 876472701026304.0
 1004783641034752.0
 911521110556672.0
 426595042983936.0
 98499186130944.0
 1649949802496.0
 1238337847296.0
 1066740154368.0
 1533531389952.0
 1014194831360.0
 11057702.0
 5205368.0
 4548022.5
 6470596.5
 3661687.5
 1853379.125
 2915842.75
 2674879.5
 1167070.25
 1339593.625
 1137359.75
 976677.4375
 841467.5
 737374.6875
 652382.5625
 579533.9375
 522700.15625
 471515.34375
 430128.34375
 397336.15625
 364606.1875
 341198.0625
 321072.71875
 302239.15625
 290067.6875
 276536.40625
 267275.875
 256945.171875
 251073.109375
 245534.65625
 240896.796875
 238048.78125
 239139.25
 68455.796875
 68732.9375
 69716.1171875
 70845.9921875
 72918.1796875
 75311.2421875
 78343.171875
 81734.171875
 86689.6953125
 90594.4765625
 98038.2109375
 103855.125
 112265.9140625
 122944.7734375
 133892.96875
 149906.125
 166570.25
 187954.0
 214508.453125
 247076.625
 284891.21875
 335903.0
 462047.96875
 759497.4375
 335184.625
 659210.25
 554008.0
 773654.875
 2068649.5
 1397643.375
 5110687.5
 8220380.5
 6225955.0
 34019940352.0
 588982386688.0
 401506467840.0
 429508820992.0
 452139089920.0
 34890089234432.0
 175435807719424.0
 340142317371392.0
 388923817721856.0
 252917923708928.0
 244334750334976.0
 138526150623232.0
 37666695413760.0
 950846750720.0
 792982585344.0
 897116667904.0
 1079777230848.0
 677292998656.0
 4563023.0
 2557425.0
 413779.25
 1455228.75
 1359682.0
 394803.28125
 533108.1875
 826977.0625
 395699.5625
 347084.9375
 297353.9375
 257546.921875
 223283.34375
 196771.859375
 174342.546875
 155666.15625
 141430.28125
 127855.9375
 117609.921875
 108318.296875
 100333.453125
 93201.6875
 88324.140625
 83699.3671875
 80030.9921875
 76869.984375
 74731.375
 72026.7578125
 70478.546875
 69005.109375
 67919.9140625
 67533.0078125
 68124.7578125
 147651.875
 147895.609375
 150172.09375
 152050.3125
 156666.6875
 161249.921875
 167267.90625
 174163.8125
 183727.5625
 193505.21875
 206542.84375
 220615.125
 237922.609375
 260142.296875
 282002.5625
 312493.5625
 348690.65625
 390744.78125
 442776.34375
 508713.0625
 585030.375
 686069.875
 750479.625
 1304408.5
 919316.875
 1564464.25
 1366386.75
 2034269.125
 4014384.0
 3547490.25
 8488181.0
 13049636.0
 9374585.0
 88073707520.0
 1546841751552.0
 970206543872.0
 649623633920.0
 639427739648.0
 44392203157504.0
 219720158543872.0
 412104158871552.0
 554504470659072.0
 595199721996288.0
 589393731518464.0
 306755925966848.0
 76441081348096.0
 1594386022400.0
 1209264898048.0
 1072490676224.0
 1480584069120.0
 973816463360.0
 10066356.0
 3536131.25
 2213936.75
 3477669.5
 2214793.25
 1128463.625
 1661267.0
 1567346.625
 719373.5
 802287.625
 682721.0
 586784.3125
 507510.375
 444919.65625
 393176.25
 352067.34375
 316430.8125
 286663.28125
 262926.59375
 240161.046875
 221458.890625
 208599.234375
 194822.40625
 184852.40625
 176693.53125
 169198.859375
 163052.859375
 158093.828125
 152148.71875
 150150.859375
 147983.6875
 145593.4375
 147100.828125
 154415.8125
 155561.03125
 157580.75
 159961.609375
 164558.78125
 168791.671875
 176075.921875
 183666.9375
 193812.0
 204394.765625
 218398.0
 233229.015625
 252350.390625
 276017.34375
 300331.0625
 335197.84375
 372221.15625
 418351.84375
 476630.75
 546000.4375
 630516.9375
 743398.6875
 939755.0625
 1575962.0
 826848.75
 1525675.625
 1308386.75
 1864624.0
 4454716.5
 3307989.25
 10409331.0
 16457248.0
 11454018.0
 78018011136.0
 1365962653696.0
 884974354432.0
 807347486720.0
 877533790208.0
 59426895560704.0
 306719049646080.0
 630189545488384.0
 809262099988480.0
 631402068443136.0
 578735837282304.0
 292773458608128.0
 72866485764096.0
 1792268959744.0
 1439035949056.0
 1530345947136.0
 1988615208960.0
 1277733109760.0
 12941174.0
 3998186.0
 1157576.625
 3577175.0
 2852221.25
 935093.625
 1371046.875
 1799286.125
 843320.25
 803193.6875
 686995.125
 593116.6875
 513006.28125
 452655.96875
 399582.53125
 356909.34375
 323244.84375
 293879.53125
 267953.9375
 247213.859375
 228900.5
 213195.859375
 201474.234375
 191687.671875
 181606.171875
 174830.71875
 168514.3125
 163321.5625
 159509.984375
 156264.15625
 153816.328125
 152812.8125
 153961.703125
 232562.296875
 234249.375
 237986.359375
 241026.40625
 249194.609375
 255772.515625
 265556.03125
 277481.09375
 291634.625
 306665.1875
 327235.28125
 349760.8125
 375686.59375
 410793.21875
 448045.1875
 497162.15625
 552644.8125
 619218.0
 700832.4375
 805651.3125
 925056.9375
 1086588.0
 1233193.625
 2164430.25
 1359206.125
 2432703.75
 2039192.625
 3044240.5
 6469392.0
 5317511.5
 13969061.0
 21461186.0
 14799146.0
 112041263104.0
 1962100916224.0
 1241865388032.0
 865387937792.0
 946866487296.0
 64845131022336.0
 339063039066112.0
 707041274363904.0
 985620704919552.0
 991006593908736.0
 908490205822976.0
 441646588100608.0
 105388414337024.0
 2183539589120.0
 1676504989696.0
 1573342281728.0
 2126595489792.0
 1384945418240.0
 14967181.0
 4893294.0
 3134032.5
 5957314.5
 3832761.75
 1600257.75
 2547790.0
 2664698.75
 1167944.0
 1269595.75
 1078609.5
 928027.1875
 803706.625
 703108.5625
 621449.75
 553810.5625
 498983.375
 452650.15625
 414426.625
 380509.65625
 352912.1875
 328897.84375
 308888.3125
 293448.90625
 277875.25
 268310.96875
 256575.84375
 249275.203125
 242383.53125
 238254.921875
 232875.625
 231014.625
 233229.265625
 152170.578125
 153235.953125
 155294.921875
 157436.890625
 162373.84375
 166619.6875
 173849.15625
 181909.859375
 191754.15625
 202188.6875
 215503.953125
 230815.890625
 247930.234375
 270537.875
 297231.375
 327185.75
 366147.75
 411112.625
 465413.40625
 537146.8125
 618667.8125
 726017.375
 903320.3125
 1512434.375
 838758.75
 1518193.75
 1311981.875
 1877289.75
 4315939.0
 3335232.0
 9896152.0
 15589868.0
 11618838.0
 69875908608.0
 1213953605632.0
 780069765120.0
 700135768064.0
 715169202176.0
 55175964262400.0
 281723078180864.0
 568282423754752.0
 723812047912960.0
 577063215955968.0
 536834606104576.0
 276884579418112.0
 69541321244672.0
 1507578347520.0
 1195304419328.0
 1249418018816.0
 1646540619776.0
 1060919574528.0
 9023055.0
 4220959.0
 1620885.75
 3557075.0
 2702286.75
 1004068.5625
 1454100.875
 1757468.0
 821057.875
 809317.3125
 690222.5625
 593751.8125
 513861.5
 452617.25
 399678.53125
 356563.03125
 320051.46875
 292098.21875
 267138.0
 244839.234375
 226618.5
 212785.78125
 200262.421875
 190049.09375
 180985.3125
 173295.96875
 167476.578125
 162162.15625
 157563.625
 155016.078125
 152093.515625
 151807.3125
 151583.828125
 144039.703125
 144907.34375
 147276.609375
 149335.421875
 153820.578125
 158197.078125
 164303.96875
 171174.5
 180407.703125
 191808.265625
 202699.71875
 216635.109375
 233745.46875
 255017.71875
 278726.875
 308404.21875
 343975.25
 384397.96875
 437576.28125
 500073.90625
 576522.75
 678193.25
 772490.5
 1355904.5
 851971.3125
 1513433.875
 1284238.625
 1905202.5
 4053135.75
 3347762.5
 8832932.0
 13743268.0
 10036373.0
 80966705152.0
 1415139950592.0
 888645484544.0
 623067660288.0
 702767431680.0
 48147208339456.0
 240893760110592.0
 456459796086784.0
 585326129053696.0
 572266811228160.0
 562724635410432.0
 298482141233152.0
 75922824757248.0
 1663091474432.0
 1264952803328.0
 1191337000960.0
 1579626135552.0
 1025430454272.0
 9110661.0
 3723959.25
 1871621.5
 3413629.5
 2312306.0
 1011189.8125
 1541700.375
 1605671.25
 722649.5625
 778640.8125
 662515.125
 570369.625
 492781.40625
 434242.71875
 381918.25
 340877.96875
 307000.9375
 278783.03125
 255002.34375
 233595.25
 217072.109375
 202692.03125
 190467.625
 181116.0625
 171921.046875
 165323.046875
 158110.84375
 153919.203125
 150312.765625
 146633.828125
 144994.359375
 144083.0625
 143453.125
 139101.078125
 139973.28125
 142815.25
 144498.0
 149273.96875
 153380.828125
 159054.046875
 167143.640625
 174826.96875
 184906.734375
 197304.953125
 210763.5625
 227975.3125
 247945.484375
 272188.34375
 300558.34375
 335712.65625
 376358.4375
 428482.3125
 490447.25
 568621.75
 665763.9375
 813397.3125
 1379188.625
 779153.0625
 1421408.25
 1215137.0
 1757714.375
 3992246.0
 3106723.25
 9096440.0
 14377593.0
 10480259.0
 79710322688.0
 1391656304640.0
 873303441408.0
 683296620544.0
 664457838592.0
 56053106475008.0
 277373903699968.0
 528744431222784.0
 660549662670848.0
 549241525108736.0
 535503065579520.0
 285319576420352.0
 72986317029376.0
 1711779872768.0
 1361050730496.0
 1385420029952.0
 1802402660352.0
 1160928690176.0
 10560002.0
 3940324.25
 1333830.125
 3109194.25
 2400854.75
 916287.5625
 1320358.75
 1573096.5
 734485.625
 734402.4375
 626765.875
 540694.875
 468197.4375
 411098.375
 364364.21875
 326767.3125
 293041.75
 265488.125
 243769.4375
 223560.328125
 207703.359375
 193622.5
 183508.84375
 174153.390625
 164153.1875
 159998.125
 152061.0625
 149004.296875
 144619.8125
 141221.6875
 139337.765625
 137952.65625
 138422.671875
 198144.265625
 200372.4375
 202320.453125
 205561.25
 211805.484375
 217605.703125
 226443.328125
 235604.125
 248016.859375
 262666.28125
 278582.71875
 299081.46875
 321729.75
 351449.1875
 384461.8125
 423671.15625
 473507.9375
 532519.3125
 602120.5625
 691974.5
 798359.25
 935609.3125
 1091199.375
 1879258.875
 1156095.625
 2055489.375
 1757390.0
 2580884.5
 5570204.0
 4534105.5
 12281461.0
 19095706.0
 13446689.0
 103913488384.0
 1822731796480.0
 1165993181184.0
 884633763840.0
 1072539238400.0
 62540960759808.0
 322477485981696.0
 648713336782848.0
 858694489210880.0
 802074874871808.0
 758774222553088.0
 387192979456000.0
 96045199523840.0
 2158050934784.0
 1657793019904.0
 1591908761600.0
 2135830560768.0
 1389291110400.0
 14243107.0
 4622890.0
 2293852.75
 4736506.5
 3289738.75
 1345879.25
 2037706.25
 2228947.75
 1012996.5
 1062444.875
 904728.3125
 779594.5625
 674866.75
 593608.25
 523757.90625
 467475.5625
 420822.34375
 381955.28125
 350952.96875
 319760.75
 297953.875
 278203.6875
 261825.203125
 249154.78125
 236324.765625
 227230.0
 217161.15625
 212602.8125
 207005.765625
 201212.953125
 199956.953125
 196629.71875
 197239.671875
 175573.328125
 174074.25
 178117.265625
 181553.140625
 186782.765625
 191767.078125
 199014.0
 208193.90625
 218878.40625
 231208.328125
 246421.546875
 264184.78125
 283953.28125
 309726.125
 340366.59375
 374985.78125
 417858.9375
 470083.625
 533069.1875
 610381.375
 702751.0
 826810.0625
 999474.0
 1707291.0
 974307.875
 1772329.25
 1508313.375
 2191416.0
 4939320.0
 3862396.0
 11130338.0
 17469708.0
 12789582.0
 89362472960.0
 1555024707584.0
 973002375168.0
 743170899968.0
 679277428736.0
 63964423651328.0
 321502830395392.0
 629234452135936.0
 808057294553088.0
 692017747197952.0
 655857276682240.0
 338397117808640.0
 84674860810240.0
 1913800359936.0
 1485469777920.0
 1494068363264.0
 1960415985664.0
 1262822621184.0
 11026267.0
 4794102.5
 1953557.125
 4083849.5
 3007794.5
 1173550.125
 1732570.375
 1996416.25
 921586.0
 934436.8125
 795426.375
 684073.3125
 591864.125
 521807.4375
 459445.3125
 411126.125
 370365.4375
 335836.46875
 306115.8125
 282285.75
 261163.0
 243728.515625
 230938.890625
 218209.1875
 207707.3125
 200979.0625
 191493.609375
 186406.109375
 181608.421875
 176993.4375
 175644.1875
 174425.765625
 173719.875
 161943.84375
 162132.34375
 165429.453125
 167319.515625
 172465.890625
 178292.234375
 184704.5625
 192272.765625
 203099.125
 214263.375
 227780.09375
 245649.84375
 263938.40625
 286403.21875
 315752.875
 347004.03125
 387074.09375
 435502.0
 494093.46875
 565751.125
 653842.875
 765823.1875
 894134.375
 1548722.875
 940975.0625
 1689898.75
 1437699.25
 2116560.0
 4598933.0
 3728338.5
 10173058.0
 15917480.0
 11728564.0
 85667717120.0
 1495910842368.0
 949529542656.0
 739227140096.0
 931222257664.0
 54715115110400.0
 274420409040896.0
 531435832213504.0
 675141478514688.0
 621822613651456.0
 608553513517056.0
 325528389156864.0
 83074465398784.0
 1726491918336.0
 1363873103872.0
 1323066195968.0
 1760280182784.0
 1143944511488.0
 10295679.0
 4063760.25
 1943314.625
 3811815.0
 2643844.25
 1096711.375
 1671025.5
 1811325.75
 816562.8125
 865627.8125
 734969.8125
 634280.0625
 548778.375
 482223.9375
 426236.53125
 381030.53125
 343064.96875
 310654.375
 284130.9375
 261999.8125
 243036.859375
 226737.71875
 214397.203125
 202579.6875
 191785.96875
 185987.21875
 176407.84375
 173305.296875
 168815.734375
 164230.09375
 162349.6875
 160725.78125
 159856.28125
 146878.765625
 147780.234375
 149919.0
 153298.796875
 156980.53125
 161181.578125
 167924.3125
 175280.25
 184472.953125
 194833.9375
 206925.265625
 222939.640625
 240673.6875
 260179.453125
 286355.875
 314567.90625
 351655.0
 395957.1875
 448020.8125
 515306.75
 594614.375
 697209.8125
 838859.875
 1429179.875
 832011.3125
 1499810.125
 1285741.25
 1865092.0
 4171793.5
 3294634.5
 9393883.0
 14794467.0
 10846316.0
 90445340672.0
 1583011725312.0
 996485365760.0
 730852950016.0
 706765127680.0
 58978138587136.0
 293718586294272.0
 543591730511872.0
 671621685706752.0
 582269387407360.0
 575665808080896.0
 309017461129216.0
 80156395831296.0
 2145932804096.0
 1588924121088.0
 1559789174784.0
 2013828874240.0
 1293707247616.0
 11175925.0
 4619575.0
 1511860.875
 3199774.0
 2490326.75
 1010326.1875
 1417207.875
 1635007.5
 772998.4375
 780112.8125
 663950.8125
 572512.0
 495497.0625
 436516.125
 385439.09375
 344888.0
 310777.28125
 283490.1875
 258008.171875
 237542.203125
 220016.1875
 205574.5
 195159.796875
 183537.890625
 174216.140625
 168994.3125
 160061.484375
 157197.984375
 153417.15625
 148518.53125
 147266.78125
 146435.546875
 144772.46875
 187084.203125
 188186.265625
 191986.625
 194228.578125
 200615.703125
 206575.890625
 213870.53125
 223169.015625
 235171.765625
 248393.703125
 264160.96875
 283133.59375
 305864.5625
 332054.375
 364939.40625
 403666.78125
 450315.75
 506227.375
 573826.4375
 657805.125
 759894.875
 889475.75
 1047731.625
 1802889.125
 1088471.875
 1949335.875
 1670100.875
 2448858.0
 5330918.5
 4311663.5
 11859379.0
 18555370.0
 13578397.0
 97484488704.0
 1697240449024.0
 1052609019904.0
 784512843776.0
 894160928768.0
 65419897470976.0
 321262345781248.0
 626053760417792.0
 812208984424448.0
 730979878567936.0
 709437530570752.0
 373829960466432.0
 93462271623168.0
 1749527298048.0
 1464581881856.0
 1444656447488.0
 1948818866176.0
 1270824828928.0
 12278687.0
 4400781.0
 2227236.75
 4458971.0
 3072496.0
 1262534.625
 1927379.375
 2098687.25
 949819.0625
 1001955.0625
 850742.25
 733775.125
 636714.4375
 559635.875
 493053.03125
 441161.125
 396668.125
 360521.75
 328698.59375
 304085.84375
 280723.75
 262427.78125
 248147.4375
 234519.28125
 222774.9375
 214228.6875
 204747.84375
 199232.109375
 194463.859375
 190164.1875
 187692.265625
 186822.0625
 185093.875
 174304.3125
 176724.1875
 179076.234375
 182347.671875
 188597.4375
 193405.125
 200656.296875
 208954.578125
 220908.046875
 233171.78125
 247853.3125
 266127.5
 287464.71875
 311403.15625
 341206.34375
 377955.09375
 421252.78125
 472337.25
 538342.5625
 614842.0
 711141.125
 831562.25
 994833.8125
 1712358.125
 991961.5
 1803372.75
 1528261.5
 2241516.0
 5003884.5
 3937822.75
 11213872.0
 17577462.0
 12557985.0
 98183430144.0
 1726349443072.0
 1129171386368.0
 923415805952.0
 1174191341568.0
 61300419854336.0
 321303181524992.0
 630278196297728.0
 791292762128384.0
 697283846864896.0
 670007180656640.0
 352382269521920.0
 90785810743296.0
 2490126303232.0
 1806785708032.0
 1767103004672.0
 2285123141632.0
 1468491366400.0
 13304581.0
 5005020.0
 1742527.375
 3973547.0
 3027248.25
 1170810.375
 1702083.25
 1987538.5
 925503.5
 935286.75
 794376.6875
 687369.0
 593783.125
 521645.03125
 461798.875
 412882.34375
 372137.53125
 335689.53125
 307349.96875
 284792.71875
 262672.65625
 245941.84375
 232832.40625
 219435.53125
 208035.0625
 201090.84375
 192061.328125
 187711.75
 183120.921875
 178813.53125
 176672.796875
 175234.171875
 172517.78125
 163703.609375
 164479.78125
 167242.78125
 170794.953125
 175104.296875
 179932.125
 187055.53125
 194134.203125
 205836.234375
 216738.71875
 231427.421875
 247021.796875
 267280.375
 290338.375
 317825.6875
 351794.5
 391258.0625
 439176.21875
 499518.4375
 571897.125
 661641.0625
 774217.3125
 909159.5
 1557164.75
 950652.125
 1684432.75
 1452659.875
 2121265.75
 4581844.5
 3721224.5
 10174041.0
 15930996.0
 12203158.0
 93870415872.0
 1626515963904.0
 976393666560.0
 645749145600.0
 426522902528.0
 65542631194624.0
 309117352673280.0
 558153246703616.0
 704958349443072.0
 630651120254976.0
 628148429389824.0
 337406792302592.0
 85587692355584.0
 1778933825536.0
 1393518444544.0
 1348374888448.0
 1805769900032.0
 1173027553280.0
 9349838.0
 4945264.0
 2209939.25
 3735875.25
 2645054.5
 1190192.75
 1708011.375
 1810105.125
 843991.0625
 884982.0
 752261.4375
 647924.875
 559989.5
 492114.03125
 434184.5
 388420.4375
 348306.625
 315529.96875
 289137.375
 266389.875
 245324.65625
 230855.59375
 218462.640625
 205068.03125
 195012.484375
 188491.125
 178903.640625
 174936.828125
 171095.671875
 166120.84375
 165845.3125
 163395.40625
 162968.96875
 160161.9375
 161199.296875
 164634.875
 167300.3125
 172616.03125
 176727.65625
 184062.78125
 191924.546875
 201947.40625
 214020.65625
 227901.546875
 244679.5
 264345.5
 285727.65625
 315344.3125
 347583.78125
 387946.0625
 436851.53125
 497967.875
 567979.4375
 656612.875
 768943.1875
 914928.8125
 1597517.25
 915301.125
 1687853.5
 1410771.875
 2084870.25
 4698675.0
 3671716.0
 10597084.0
 16656577.0
 11990127.0
 88509087744.0
 1548507021312.0
 990428200960.0
 808984117248.0
 1197452296192.0
 57870729084928.0
 294248477884416.0
 573280826163200.0
 711538910429184.0
 624406036480000.0
 619791094120448.0
 339350969647104.0
 88291214884864.0
 1859733422080.0
 1524351893504.0
 1536396623872.0
 1992704000000.0
 1285976621056.0
 12037955.0
 3848162.0
 1546007.125
 3742765.75
 2693502.75
 1004804.5
 1577883.5
 1826391.75
 813787.5
 844830.4375
 720206.75
 620747.125
 537962.3125
 473651.875
 419446.9375
 374890.3125
 337032.0
 306752.9375
 279265.03125
 259681.40625
 237941.125
 223837.90625
 211431.0
 199951.90625
 190303.09375
 183188.46875
 175426.265625
 171216.109375
 166388.296875
 162920.84375
 161710.796875
 160261.296875
 158261.9375
 185413.75
 187066.171875
 189499.34375
 193076.03125
 198580.046875
 204250.84375
 211025.859375
 220164.765625
 232791.375
 245016.484375
 261757.078125
 281205.9375
 302990.25
 328603.59375
 361905.46875
 398123.625
 444032.9375
 498939.8125
 566540.0
 648384.6875
 749320.9375
 876356.0
 1038473.75
 1760820.0
 1073668.375
 1901501.75
 1656617.125
 2405558.25
 5182783.0
 4223228.0
 11529635.0
 18041618.0
 13096757.0
 109195018240.0
 1919250595840.0
 1243308752896.0
 968043986944.0
 1036154306560.0
 66834762039296.0
 336958974853120.0
 641285325062144.0
 809130902159360.0
 724446293786624.0
 705367914840064.0
 372204382453760.0
 95169529511936.0
 2612075954176.0
 1882860945408.0
 1794277507072.0
 2371163783168.0
 1533887119360.0
 14026865.0
 5583394.0
 2048396.875
 4078387.75
 3099526.5
 1321156.25
 1825152.5
 2038703.625
 974789.25
 993260.5
 842255.875
 727450.0
 629757.5
 552196.0625
 489481.6875
 437147.90625
 393512.65625
 357407.4375
 325646.28125
 300805.0625
 277808.75
 260813.828125
 245915.5
 232254.984375
 219648.5625
 212155.796875
 202952.265625
 198144.25
 193103.1875
 188885.546875
 186657.359375
 184367.6875
 183277.671875
 169575.21875
 170909.078125
 172904.328125
 176587.65625
 181558.359375
 186795.78125
 193345.734375
 202035.890625
 214330.125
 224110.34375
 240205.5625
 255871.1875
 278112.75
 301288.3125
 329009.53125
 365244.625
 405753.53125
 457284.21875
 517891.4375
 594281.1875
 686669.1875
 802516.8125
 958939.1875
 1649059.625
 958718.125
 1737985.875
 1477482.625
 2161081.0
 4807355.5
 3797240.75
 10793593.0
 16942264.0
 12684768.0
 98193309696.0
 1707283841024.0
 1039553986560.0
 718223638528.0
 628892762112.0
 67709966483456.0
 328509163569152.0
 604608586055680.0
 756232138784768.0
 668483675226112.0
 660671666585600.0
 353588350025728.0
 90340417601536.0
 2098640977920.0
 1604702437376.0
 1573799854080.0
 2047135711232.0
 1319213596672.0
 10676099.0
 5080911.0
 2007354.25
 3849705.0
 2826343.0
 1175422.25
 1707348.125
 1908072.0
 880846.25
 908293.0625
 774584.5625
 665863.8125
 577148.0
 508350.78125
 447191.125
 400627.84375
 361063.125
 327525.625
 298220.3125
 276345.625
 254472.78125
 238563.453125
 224935.84375
 212072.921875
 202342.25
 194211.921875
 186206.96875
 181014.4375
 176532.5
 172772.703125
 170722.140625
 169887.296875
 167970.671875
 165592.875
 167293.71875
 170746.359375
 173758.75
 177787.96875
 183834.515625
 191821.765625
 199073.375
 211009.859375
 220780.421875
 236434.75
 252298.921875
 273927.875
 296925.96875
 325317.96875
 361189.375
 401272.03125
 450537.96875
 512032.0625
 588576.1875
 678672.625
 795891.625
 939068.375
 1614494.625
 968467.25
 1739776.625
 1489095.375
 2187326.75
 4776144.5
 3857155.5
 10684630.0
 16778446.0
 12741584.0
 92151275520.0
 1598675615744.0
 976121233408.0
 711194836992.0
 783132786688.0
 63010236268544.0
 307615825395712.0
 569586483200000.0
 711926329901056.0
 627095558422528.0
 629923123298304.0
 345935255175168.0
 89459504709632.0
 1674687021056.0
 1395961888768.0
 1379881451520.0
 1846573662208.0
 1200474554368.0
 10217863.0
 4431781.0
 2033804.0
 3832114.75
 2688639.0
 1141675.75
 1707809.875
 1852432.0
 842300.3125
 888266.0
 755521.1875
 650332.5
 566878.25
 496396.65625
 438560.59375
 392020.90625
 353433.375
 320620.78125
 291363.875
 271940.8125
 247694.65625
 233900.03125
 221012.734375
 208466.5
 197843.90625
 191359.765625
 182492.3125
 177580.453125
 173424.828125
 169828.765625
 167217.3125
 167126.59375
 165218.875
 174260.078125
 176078.078125
 178172.734375
 181746.625
 187705.0
 192676.90625
 200266.28125
 207888.953125
 220737.03125
 230946.984375
 248120.3125
 263676.9375
 287037.71875
 311955.21875
 341083.21875
 378584.1875
 419446.28125
 471716.875
 538255.9375
 616183.5625
 712351.25
 834942.9375
 988858.9375
 1718156.125
 1000451.6875
 1821029.625
 1536507.0
 2271534.75
 5066145.5
 3996727.75
 11389185.0
 17849142.0
 12756846.0
 97716183040.0
 1714913804288.0
 1111276650496.0
 899958702080.0
 1273197494272.0
 62250106748928.0
 316440238358528.0
 618682522796032.0
 770263058743296.0
 682836180860928.0
 675074235432960.0
 366909358866432.0
 95055100510208.0
 2172733489152.0
 1730936307712.0
 1720369676288.0
 2229394472960.0
 1436880601088.0
 13682019.0
 4317363.5
 1666209.5
 4018731.75
 2941270.0
 1111424.0
 1706881.75
 1977138.875
 888225.75
 918601.3125
 783190.625
 675734.4375
 587384.375
 515447.75
 456889.1875
 407377.21875
 368335.5625
 332265.125
 304527.125
 282967.46875
 258437.65625
 245713.65625
 229502.53125
 218473.609375
 206856.03125
 199187.234375
 191700.921875
 186075.171875
 180832.0
 176998.53125
 176129.890625
 174224.3125
 172715.5625
 179360.28125
 180711.59375
 183380.3125
 186828.984375
 192875.921875
 197955.421875
 206421.890625
 214373.296875
 227076.515625
 237907.265625
 254154.90625
 271294.21875
 293885.8125
 319304.59375
 351096.125
 387455.6875
 431439.34375
 484467.3125
 550111.0
 631171.9375
 728570.375
 852839.25
 1011753.875
 1714360.0
 1046927.1875
 1846299.125
 1607439.0
 2338800.75
 5045256.0
 4111910.0
 11272694.0
 17676572.0
 13007194.0
 106468638720.0
 1871111258112.0
 1219044179968.0
 973877739520.0
 1075170443264.0
 66391516381184.0
 330849618755584.0
 624581727485952.0
 775865306710016.0
 689977436405760.0
 679072313114624.0
 364382710136832.0
 94070034661376.0
 2575439233024.0
 1866111516672.0
 1785716539392.0
 2344935227392.0
 1515392466944.0
 13397171.0
 5559160.0
 1980429.125
 3913270.25
 3009273.0
 1275855.625
 1763375.375
 1979287.875
 942258.0
 960486.5
 816677.0
 701718.5
 611916.5
 535766.0625
 473740.8125
 424941.71875
 380850.125
 345452.5
 316103.875
 292318.8125
 268516.25
 253248.09375
 237981.65625
 224572.71875
 214462.171875
 205434.890625
 197248.390625
 191189.96875
 186980.546875
 182504.578125
 181130.75
 179804.359375
 177475.375
 164818.6875
 167152.125
 170418.21875
 173224.125
 177393.703125
 183744.484375
 189885.375
 198625.875
 210131.703125
 220342.546875
 236018.125
 251217.75
 273486.28125
 295580.125
 325430.625
 360118.1875
 399741.71875
 447662.375
 509269.71875
 583326.0625
 673731.75
 787416.9375
 937732.8125
 1613172.625
 948621.5625
 1711429.5
 1457363.5
 2132005.0
 4712614.0
 3750911.5
 10583635.0
 16596034.0
 12338136.0
 103439482880.0
 1809831559168.0
 1134997143552.0
 821665464320.0
 830916329472.0
 67144943403008.0
 327541621522432.0
 597676106186752.0
 734540003803136.0
 654594623406080.0
 652817782013952.0
 352973062406144.0
 91309444431872.0
 2472595685376.0
 1802325458944.0
 1739531747328.0
 2240795377664.0
 1441540734976.0
 11856959.0
 5388251.0
 1851697.625
 3621294.5
 2790783.5
 1168511.0
 1638770.0
 1849945.25
 870814.3125
 890325.6875
 756524.875
 650775.5625
 567078.75
 495745.875
 439391.5625
 393140.71875
 353386.28125
 321035.6875
 291827.21875
 270819.5
 247636.6875
 234792.21875
 219749.5
 209143.25
 199207.0625
 190740.515625
 183330.921875
 177967.015625
 172973.78125
 169388.09375
 168063.890625
 166109.78125
 165146.859375
 168831.796875
 169271.359375
 172376.640625
 176078.6875
 180798.328125
 185762.1875
 193375.328125
 201001.9375
 213289.515625
 223300.78125
 239461.109375
 254281.828125
 277313.4375
 300648.40625
 330212.375
 365353.875
 404403.21875
 455108.84375
 517368.5625
 590904.125
 684750.0625
 800208.0625
 949130.75
 1618132.625
 974550.25
 1734890.625
 1501704.5
 2187344.75
 4741511.0
 3838985.75
 10609891.0
 16692023.0
 12688630.0
 104577687552.0
 1820227272704.0
 1106315444224.0
 762045202432.0
 628802912256.0
 69178249707520.0
 334336863764480.0
 596237829013504.0
 739235409690624.0
 649643465637888.0
 654099628425216.0
 355277681459200.0
 91784801681408.0
 2205930487808.0
 1648844210176.0
 1583520546816.0
 2103317757952.0
 1364213104640.0
 11093605.0
 5452994.0
 2102989.0
 3663792.75
 2752215.25
 1231614.25
 1699825.0
 1844604.875
 878313.8125
 905325.9375
 770190.5
 663963.1875
 574522.0
 505401.0625
 446010.1875
 398249.8125
 360935.0625
 325842.40625
 297239.375
 275626.15625
 252338.515625
 237942.015625
 223445.453125
 212425.640625
 202403.359375
 193173.609375
 186740.0625
 179547.921875
 175043.625
 171795.90625
 170444.890625
 168725.734375
 167516.5
 178909.75
 180279.3125
 183186.96875
 186655.1875
 191704.859375
 196427.453125
 205602.828125
 213371.890625
 226282.140625
 236861.703125
 253830.875
 270109.84375
 294035.65625
 319398.03125
 348329.46875
 388717.625
 430166.71875
 484056.0625
 547681.6875
 629602.375
 729433.625
 850079.625
 1010798.375
 1754218.625
 1016598.4375
 1860030.0
 1562224.625
 2306715.5
 5145411.5
 4061469.75
 11564575.0
 18159088.0
 13599019.0
 100022951936.0
 1734026330112.0
 1040832200704.0
 713976709120.0
 749621673984.0
 69023819628544.0
 339430795640832.0
 628604769665024.0
 789581016334336.0
 699755264999424.0
 695956097990656.0
 376203970084864.0
 96550235668480.0
 1938335858688.0
 1570767634432.0
 1555151192064.0
 2041760710656.0
 1319254884352.0
 10946280.0
 4829853.0
 2129610.75
 4140642.5
 2952751.0
 1205138.875
 1821951.875
 2023867.0
 909507.8125
 957060.375
 814367.9375
 699913.25
 608382.9375
 532293.125
 472236.28125
 421024.46875
 379344.25
 344746.28125
 314154.75
 291553.125
 266683.59375
 252080.109375
 236356.21875
 223768.828125
 214052.21875
 203830.078125
 196716.40625
 190253.609375
 186060.0625
 181087.390625
 180839.625
 178831.0625
 177666.515625
 172539.296875
 174406.09375
 177311.984375
 179662.921875
 185579.25
 191203.1875
 198577.96875
 207943.203125
 218674.453125
 230346.453125
 247019.265625
 262495.46875
 285246.8125
 309841.0
 339260.65625
 378450.875
 418719.9375
 469917.375
 533404.5
 610931.3125
 708841.1875
 828322.5625
 976148.875
 1687302.75
 1010027.875
 1806984.75
 1551591.75
 2269374.75
 4963957.5
 4010385.25
 11143969.0
 17512338.0
 13337480.0
 96928505856.0
 1680828923904.0
 1019180810240.0
 729767936000.0
 777432399872.0
 66206904090624.0
 325312097288192.0
 598626099265536.0
 746946352381952.0
 653669057953792.0
 657627944058880.0
 361201213112320.0
 93698738094080.0
 1792003670016.0
 1478050447360.0
 1457434263552.0
 1950537089024.0
 1266813763584.0
 10631855.0
 4723192.0
 2124948.0
 3947379.25
 2811711.5
 1191873.375
 1770068.0
 1926104.25
 878847.9375
 925731.0625
 786915.25
 677526.6875
 589198.8125
 517159.375
 457317.6875
 406802.78125
 368026.84375
 334348.84375
 304107.5
 283742.375
 258202.28125
 244168.25
 229089.21875
 217222.390625
 207239.0
 198446.46875
 191393.984375
 184211.765625
 180768.703125
 176906.609375
 174172.78125
 173027.9375
 172537.5625
 167001.25
 169162.84375
 171458.734375
 175382.484375
 179073.625
 185541.609375
 193615.5
 200626.78125
 212981.703125
 223266.546875
 238054.609375
 254264.46875
 276967.78125
 300590.46875
 328506.53125
 367189.1875
 406694.8125
 456927.34375
 518250.03125
 594415.875
 689155.375
 806453.3125
 951023.0
 1662636.375
 964103.375
 1766477.375
 1482647.125
 2194206.0
 4901256.5
 3872499.25
 11017951.0
 17318458.0
 12879811.0
 94270259200.0
 1638440239104.0
 1005905641472.0
 732995911680.0
 946653888512.0
 63890037669888.0
 315800355340288.0
 591970443460608.0
 733994542956544.0
 648921441370112.0
 654823061979136.0
 362048932282368.0
 94284749471744.0
 1793318846464.0
 1521914347520.0
 1526101049344.0
 1993366700032.0
 1287265058816.0
 11278318.0
 4206002.0
 1838058.625
 3894056.75
 2765630.5
 1087337.375
 1698691.875
 1898393.625
 844268.5625
 891007.9375
 759072.4375
 654554.625
 567583.5625
 497795.59375
 441127.59375
 392114.03125
 355718.1875
 321339.75
 293266.4375
 272819.71875
 249581.1875
 235533.234375
 220639.875
 210233.234375
 200474.3125
 191242.40625
 184919.0625
 178554.375
 174732.859375
 171380.4375
 168226.421875
 167821.59375
 167618.1875
 184075.59375
 186058.5
 188944.3125
 192074.28125
 197736.90625
 203495.328125
 211923.75
 220054.96875
 233401.859375
 245132.828125
 261252.15625
 278599.15625
 303561.84375
 328746.0625
 359936.40625
 400843.96875
 445059.5
 499089.0
 565925.0
 651316.875
 752516.1875
 881597.125
 1040185.0
 1792828.0
 1070204.25
 1923983.75
 1643122.0
 2413776.0
 5294730.5
 4261863.5
 11852280.0
 18583868.0
 13901447.0
 99217088512.0
 1726735319040.0
 1076975960064.0
 824766627840.0
 989138452480.0
 66801543151616.0
 333073304518656.0
 633620754595840.0
 796226672918528.0
 698285178224640.0
 693871898001408.0
 378153818128384.0
 97678503444480.0
 1893597708288.0
 1570893332480.0
 1554399625216.0
 2077065478144.0
 1347738009600.0
 12039732.0
 4705212.0
 2129364.75
 4253197.0
 3029995.75
 1236066.375
 1866099.125
 2064837.125
 933460.625
 983714.75
 837089.9375
 717302.6875
 625942.1875
 548361.6875
 484958.875
 433663.90625
 390355.09375
 354282.5625
 322938.4375
 299649.5
 274952.875
 258798.0
 243298.5625
 230292.34375
 220412.203125
 209704.515625
 203439.265625
 195511.9375
 190304.359375
 187086.25
 185063.421875
 184215.84375
 182713.453125
 169251.578125
 171034.515625
 174062.3125
 176722.96875
 182032.453125
 188026.0
 194998.8125
 203752.90625
 215256.34375
 225772.703125
 241909.890625
 257404.171875
 280317.78125
 302567.625
 332598.5
 370906.78125
 411832.0625
 461654.46875
 524566.25
 601319.1875
 695561.8125
 814472.25
 962173.125
 1676544.0
 976776.625
 1790932.25
 1498983.5
 2220407.5
 4954767.0
 3919446.5
 11139042.0
 17492594.0
 12930109.0
 94409818112.0
 1644123521024.0
 1024812056576.0
 772554883072.0
 1036081168384.0
 63477905358848.0
 315119401697280.0
 597399282122752.0
 740219359854592.0
 655352550916096.0
 659351970775040.0
 364468542373888.0
 94954839867392.0
 1848239587328.0
 1559915397120.0
 1563629715456.0
 2037694070784.0
 1314930163712.0
 11708965.0
 4210312.5
 1809538.5
 3943018.5
 2811364.75
 1092651.125
 1709543.875
 1925808.375
 852696.4375
 901674.0
 766348.375
 659682.5625
 574425.1875
 502668.65625
 446300.625
 397230.25
 358812.0
 325107.84375
 296449.78125
 275032.75
 252895.703125
 239034.5625
 223454.890625
 213182.828125
 202600.265625
 193017.90625
 187635.109375
 180798.234375
 176132.375
 173694.34375
 170295.34375
 169664.96875
 170363.890625
 171620.71875
 173328.734375
 176182.765625
 180573.859375
 184540.421875
 189609.234375
 197489.875
 205230.96875
 218709.28125
 228911.59375
 245338.640625
 261056.640625
 284336.9375
 307063.9375
 336724.65625
 376211.96875
 415783.125
 467872.71875
 530088.0625
 608288.1875
 704396.8125
 823200.25
 972127.875
 1678414.75
 1004241.25
 1807460.0
 1539988.375
 2266892.75
 4958125.0
 4003827.25
 11119351.0
 17450350.0
 13135802.0
 96044892160.0
 1671538147328.0
 1040060776448.0
 789156134912.0
 939630854144.0
 64367508848640.0
 318366732517376.0
 595888460267520.0
 739706983677952.0
 646743356080128.0
 651455606292480.0
 360167535280128.0
 93937368825856.0
 1832565604352.0
 1523506348032.0
 1508039720960.0
 2007262953472.0
 1302114729984.0
 11444161.0
 4532033.5
 1968955.625
 3912676.0
 2811417.0
 1161708.875
 1736873.25
 1914821.0
 872324.5625
 916231.25
 778552.6875
 670403.0
 583390.625
 510782.28125
 452828.6875
 404757.75
 365144.40625
 331695.09375
 301012.15625
 279909.6875
 256769.765625
 241703.640625
 226208.546875
 215803.5625
 205257.6875
 195706.859375
 190286.609375
 183072.515625
 178537.796875
 174884.90625
 173260.796875
 171681.703125
 171275.5625
 180930.859375
 183457.4375
 185199.140625
 189845.25
 194973.71875
 199927.234375
 208608.53125
 217512.9375
 230421.90625
 241088.65625
 258243.4375
 275449.625
 300426.9375
 323932.25
 355100.25
 396479.1875
 437639.5625
 494262.625
 558563.8125
 641464.75
 745042.75
 866383.5
 1027539.0
 1793146.0
 1037308.9375
 1910277.5
 1590508.25
 2363758.0
 5278731.0
 4169214.75
 11863766.0
 18595930.0
 13774141.0
 97558216704.0
 1694984175616.0
 1042701352960.0
 768684785664.0
 998116818944.0
 66696962375680.0
 332606092607488.0
 634339222093824.0
 796895479857152.0
 706177851719680.0
 701973078736896.0
 382263732731904.0
 98534955155456.0
 1854819532800.0
 1569880670208.0
 1573127716864.0
 2064965435392.0
 1334015295488.0
 11820063.0
 4432100.0
 2020297.875
 4283606.5
 3012607.75
 1174842.75
 1848309.0
 2068358.75
 912789.0625
 968602.8125
 822644.875
 707944.1875
 616931.25
 538859.9375
 478553.6875
 426068.375
 384952.21875
 349147.25
 317850.1875
 296695.21875
 270704.375
 255281.890625
 239750.265625
 226911.90625
 216694.140625
 207457.265625
 200550.421875
 193654.671875
 188012.9375
 185071.390625
 182598.078125
 181101.0
 180674.5625
 169067.78125
 171038.546875
 173911.28125
 177280.9375
 181736.5625
 187472.15625
 195540.78125
 203305.03125
 214896.390625
 225932.5625
 241368.40625
 257376.171875
 280559.46875
 301596.21875
 333113.65625
 369468.0
 409467.09375
 460553.53125
 522412.34375
 599978.875
 694347.125
 812642.8125
 959842.3125
 1652693.125
 990369.6875
 1775162.25
 1523967.375
 2226932.25
 4869096.0
 3932655.5
 10945241.0
 17192890.0
 13103250.0
 97049051136.0
 1683634126848.0
 1019953479680.0
 725719384064.0
 764029763584.0
 65916452732928.0
 322831552348160.0
 590156960628736.0
 733441230372864.0
 640490554785792.0
 647769115066368.0
 357391409348608.0
 92992643792896.0
 1799167672320.0
 1482420256768.0
 1461302984704.0
 1953051443200.0
 1268480344064.0
 10696029.0
 4688698.5
 2058807.875
 3833965.5
 2748773.75
 1172525.875
 1731617.25
 1881058.25
 862842.0625
 907417.9375
 772143.4375
 662788.375
 577040.75
 507010.75
 447560.8125
 398903.71875
 359316.59375
 327936.15625
 297629.5625
 278287.0
 254253.6875
 239513.0625
 224553.96875
 212881.140625
 203106.59375
 193641.78125
 187720.375
 181149.65625
 176518.890625
 173515.21875
 170395.15625
 169066.71875
 169415.921875
 168809.203125
 171401.34375
 173458.265625
 177402.609375
 181379.203125
 187345.109375
 195053.484375
 203324.3125
 214837.15625
 225443.21875
 240760.90625
 256910.484375
 280524.03125
 302169.25
 330360.4375
 369765.9375
 408460.90625
 459682.5625
 521325.375
 598602.0
 690922.125
 809280.75
 958613.875
 1666542.0
 967565.875
 1770421.25
 1489707.25
 2192713.5
 4897066.5
 3871394.25
 11019540.0
 17310352.0
 13046399.0
 97957298176.0
 1698426388480.0
 1017522487296.0
 689797922816.0
 717200162816.0
 67286308225024.0
 328746393403392.0
 600275970686976.0
 746502024593408.0
 661038886289408.0
 664742960037888.0
 363278165344256.0
 93924005773312.0
 1908481589248.0
 1543512915968.0
 1525973254144.0
 1996811141120.0
 1289787801600.0
 10544251.0
 4725570.0
 2014661.125
 3882139.0
 2789692.5
 1148746.125
 1728587.375
 1908425.375
 862911.9375
 908149.75
 772014.75
 665475.875
 577277.9375
 506567.40625
 447951.0
 398570.125
 361667.8125
 327452.34375
 298207.4375
 278393.71875
 253550.5
 240007.421875
 223746.140625
 212564.265625
 202794.4375
 192843.90625
 188087.546875
 180975.078125
 175792.515625
 173103.78125
 170154.1875
 169769.359375
 169181.890625
 179165.984375
 181313.640625
 184151.875
 187759.734375
 192976.609375
 198502.96875
 207000.9375
 215429.484375
 226812.28125
 239021.21875
 254294.34375
 272053.84375
 295378.21875
 319527.71875
 350444.71875
 389237.53125
 431318.0625
 485165.3125
 549049.4375
 630057.9375
 730683.75
 851624.625
 1012274.1875
 1720841.375
 1037417.8125
 1844745.5
 1592936.0
 2314628.5
 5044622.5
 4080758.5
 11286498.0
 17706534.0
 13472421.0
 106652426240.0
 1854678499328.0
 1128166588416.0
 788099563520.0
 650175578112.0
 71524123934720.0
 347701191376896.0
 629147143503872.0
 787976107851776.0
 694596069752832.0
 690303988137984.0
 370627793911808.0
 94978873229312.0
 2244323573760.0
 1675432689664.0
 1609820405760.0
 2143322767360.0
 1389801242624.0
 11188817.0
 5693534.5
 2295787.25
 3983827.75
 2957003.0
 1308840.0
 1826939.875
 1983537.5
 938596.625
 971596.125
 826346.625
 707375.125
 616414.0
 539052.0625
 477130.9375
 426770.4375
 383852.875
 348711.21875
 317614.46875
 295436.4375
 270337.1875
 254551.734375
 239442.71875
 225659.671875
 214734.015625
 206269.6875
 199050.875
 192101.25
 187933.421875
 183670.71875
 180396.875
 179813.15625
 178819.5
 165546.1875
 167875.328125
 170399.609375
 173101.484375
 178020.96875
 183694.65625
 190874.46875
 198396.40625
 210097.15625
 220887.265625
 235510.59375
 252046.40625
 272359.59375
 294674.6875
 325185.21875
 359850.34375
 399308.5625
 448243.90625
 509550.4375
 583602.875
 674401.375
 790191.6875
 939501.0625
 1609792.875
 951207.375
 1711349.5
 1458661.0
 2132526.75
 4709557.0
 3753658.0
 10594078.0
 16649379.0
 12260183.0
 105846767616.0
 1854643109888.0
 1166480113664.0
 841370107904.0
 868853219328.0
 67576575033344.0
 329751851958272.0
 600871092092928.0
 737406424711168.0
 657513389228032.0
 658061668646912.0
 356347463860224.0
 92309081292800.0
 2544495493120.0
 1855387074560.0
 1789295591424.0
 2304557187072.0
 1483193843712.0
 12600129.0
 5362903.0
 1784339.25
 3582960.0
 2795593.0
 1165256.0
 1623631.625
 1841142.875
 870413.25
 889576.1875
 756515.25
 651232.6875
 566137.125
 495662.625
 438797.84375
 391635.71875
 353580.4375
 321214.84375
 291446.90625
 272456.875
 249379.921875
 233099.828125
 220356.765625
 208469.5
 198587.78125
 189769.84375
 183650.140625
 177683.8125
 172469.90625
 170124.359375
 166043.546875
 165534.859375
 166882.140625
 170510.515625
 172582.265625
 174837.140625
 179113.09375
 182659.234375
 188668.734375
 197493.625
 204217.40625
 215926.78125
 226791.21875
 242853.53125
 259344.296875
 281174.0
 303881.1875
 334678.3125
 370038.40625
 411661.96875
 462249.875
 524871.9375
 601142.6875
 696864.4375
 813278.6875
 965354.1875
 1637019.625
 998922.375
 1770958.25
 1534001.625
 2230365.25
 4813216.0
 3930459.25
 10783833.0
 16915604.0
 12523712.0
 103978967040.0
 1827691167744.0
 1190706151424.0
 951914790912.0
 1057249296384.0
 64614666600448.0
 320365536477184.0
 597938703171584.0
 734929503649792.0
 651668072955904.0
 648206933295104.0
 352069508661248.0
 91632112238592.0
 2523296694272.0
 1831055917056.0
 1752150310912.0
 2294335930368.0
 1482137141248.0
 12972130.0
 5426785.5
 1866781.0
 3676181.25
 2859764.5
 1216937.75
 1668835.375
 1874817.0
 898700.3125
 914616.3125
 778245.9375
 668874.8125
 581007.1875
 510570.3125
 451303.0625
 403749.71875
 363753.34375
 330910.75
 300839.96875
 278914.34375
 255795.78125
 240152.9375
 225911.578125
 214178.890625
 203980.078125
 194899.9375
 188279.71875
 182442.015625
 177303.65625
 173972.3125
 171065.671875
 170337.5
 171367.515625
 177206.34375
 178454.375
 181061.421875
 184884.953125
 189371.875
 195053.875
 203375.671875
 212033.3125
 224437.640625
 235988.90625
 251110.109375
 268152.84375
 292196.8125
 316429.96875
 346929.1875
 385151.3125
 427240.8125
 481441.1875
 545954.75
 625414.5
 724908.625
 846791.625
 1006316.5
 1749512.25
 1016269.3125
 1860371.625
 1553334.25
 2301788.75
 5138686.5
 4059910.25
 11566867.0
 18098108.0
 13078680.0
 96422043648.0
 1689583878144.0
 1094090948608.0
 891977793536.0
 1264338599936.0
 62594161311744.0
 318296805081088.0
 623678375067648.0
 777118162092032.0
 690124539035648.0
 679738167263232.0
 369159619739648.0
 95599177236480.0
 2134500835328.0
 1702114885632.0
 1693421142016.0
 2194999738368.0
 1414116147200.0
 13073945.0
 4414312.5
 1763640.125
 4115825.25
 2993901.25
 1132444.75
 1751340.0
 2017042.125
 903190.625
 940259.25
 800679.25
 689180.1875
 599815.125
 524689.0
 464362.65625
 414797.6875
 374737.625
 339938.1875
 309492.75
 289527.6875
 265001.8125
 248572.109375
 234541.921875
 220728.0
 210595.265625
 203172.15625
 194275.46875
 188371.1875
 183819.078125
 180195.8125
 177201.578125
 177339.40625
 175839.140625
 178047.609375
 179920.484375
 181860.09375
 185301.4375
 190163.625
 196425.21875
 204927.640625
 213484.09375
 225322.28125
 237169.65625
 251365.1875
 270610.78125
 294563.9375
 317012.28125
 348770.5625
 386534.34375
 428124.8125
 480985.15625
 546733.4375
 627664.1875
 725152.625
 852066.125
 1004804.5625
 1726049.125
 1035670.8125
 1857742.375
 1590913.625
 2328554.75
 5090473.0
 4110784.5
 11402666.0
 17930502.0
 13426837.0
 98571239424.0
 1712203366400.0
 1046580559872.0
 759634788352.0
 824768331776.0
 66695192379392.0
 327505248518144.0
 612687620866048.0
 773385634185216.0
 679570663538688.0
 677279969574912.0
 367439384674304.0
 94214176112640.0
 1800183218176.0
 1493951840256.0
 1474602991616.0
 1980530688000.0
 1288534097920.0
 11463002.0
 4640245.0
 2123818.5
 4088997.25
 2901389.25
 1217282.625
 1814203.375
 1978409.5
 906263.125
 948217.25
 808866.875
 695450.4375
 605020.0
 531346.4375
 467435.625
 419169.84375
 377109.0625
 342303.375
 311476.6875
 291142.75
 267477.71875
 249773.1875
 236157.71875
 222575.984375
 212815.0625
 203803.703125
 195939.4375
 190743.09375
 185041.09375
 181332.875
 179180.1875
 177581.765625
 177831.71875
 157578.125
 160031.34375
 162628.546875
 166508.6875
 169479.53125
 174735.234375
 182876.359375
 190199.140625
 200241.75
 211610.484375
 224106.046875
 241111.3125
 262636.0
 282277.65625
 310745.625
 344695.25
 382209.15625
 429116.0625
 486755.4375
 558952.1875
 646748.25
 754012.25
 901850.5625
 1550820.0
 902472.375
 1641995.0
 1390558.0
 2034463.75
 4526835.5
 3583192.75
 10173745.0
 16007290.0
 12025193.0
 96986947584.0
 1687961206784.0
 1027794403328.0
 701620158464.0
 612223549440.0
 66005141291008.0
 317371340292096.0
 573163586977792.0
 707543315775488.0
 625711907864576.0
 627401641951232.0
 340702407950336.0
 87951669198848.0
 2105578487808.0
 1602018344960.0
 1566600331264.0
 2027996971008.0
 1306052526080.0
 10487257.0
 4966044.0
 1854107.875
 3536077.25
 2641053.75
 1110086.625
 1594736.0
 1775456.875
 825129.125
 854174.8125
 724365.5625
 623915.625
 543251.6875
 476030.46875
 421120.9375
 376312.9375
 338176.875
 306958.8125
 279240.625
 261448.5625
 238523.0
 225323.375
 211817.0
 199091.03125
 190258.546875
 182491.4375
 174638.0
 169876.125
 165227.609375
 162303.46875
 159135.234375
 158557.84375
 158944.65625
 174867.4375
 176810.296875
 179894.5625
 183141.875
 187832.546875
 193960.90625
 201742.796875
 209015.890625
 222069.6875
 234100.53125
 247390.53125
 267467.9375
 288344.1875
 312691.84375
 341471.1875
 378118.125
 421774.90625
 474163.53125
 536741.0
 615769.8125
 712352.5
 834232.5
 984560.3125
 1671308.75
 1024471.75
 1805103.625
 1566619.375
 2279368.0
 4916705.0
 4019080.0
 10961903.0
 17175572.0
 12666857.0
 104116994048.0
 1828191076352.0
 1184327925760.0
 928247119872.0
 995913891840.0
 64318280302592.0
 323010967896064.0
 607519365922816.0
 757268500971520.0
 677347078438912.0
 665493639790592.0
 355644565618688.0
 91801520177152.0
 2505067986944.0
 1803162877952.0
 1717876555776.0
 2261827977216.0
 1461822685184.0
 12761571.0
 5495579.5
 1998136.5
 3845516.0
 2933722.5
 1261072.125
 1740198.375
 1932561.625
 926338.6875
 941609.4375
 802533.9375
 688711.625
 598919.6875
 525520.0625
 464423.03125
 414777.65625
 374797.53125
 339418.125
 308865.34375
 287107.84375
 264750.53125
 247048.0625
 233953.671875
 219644.078125
 208267.515625
 201584.34375
 192504.40625
 187042.140625
 183248.65625
 178800.15625
 175498.078125
 175949.5625
 174851.328125
 179833.8125
 182333.875
 185584.609375
 189083.78125
 194147.546875
 200465.515625
 208661.390625
 216688.015625
 230103.640625
 241506.765625
 255858.078125
 277594.15625
 297805.0
 322769.84375
 355566.96875
 391707.78125
 437833.78125
 490850.59375
 558360.0
 639830.875
 739689.375
 869046.1875
 1031846.0625
 1798824.875
 1030415.5
 1893625.875
 1580917.125
 2333100.0
 5280043.5
 4121452.75
 11885211.0
 18644066.0
 13332487.0
 94777933824.0
 1657001213952.0
 1058974466048.0
 865846427648.0
 1270062514176.0
 62810818084864.0
 321672246722560.0
 639609146966016.0
 808849716019200.0
 713373666770944.0
 695058248499200.0
 372700350513152.0
 95483531886592.0
 1965387939840.0
 1614716600320.0
 1627517091840.0
 2124633866240.0
 1372342583296.0
 13119882.0
 4171540.0
 1800204.875
 4318690.5
 3069563.25
 1133681.5
 1799314.0
 2077094.25
 920225.625
 959161.75
 818480.5625
 703081.1875
 611036.9375
 536479.8125
 474243.0
 423619.625
 382527.71875
 346552.0625
 315370.5625
 294845.53125
 271840.46875
 253596.765625
 238525.5
 226286.609375
 214665.640625
 206631.546875
 198846.796875
 192628.453125
 187699.421875
 184226.546875
 181644.46875
 180852.703125
 180631.765625
 163616.296875
 165850.0
 167983.046875
 170925.28125
 175240.140625
 180586.75
 188635.0
 195333.703125
 206145.03125
 217974.546875
 231521.234375
 249215.6875
 268596.0625
 291598.78125
 320718.25
 351914.1875
 394337.34375
 441063.65625
 499963.46875
 572780.375
 665167.25
 777231.5625
 914744.4375
 1562483.625
 953761.625
 1687920.125
 1458774.375
 2124723.5
 4596215.0
 3736245.5
 10205136.0
 16031795.0
 12155211.0
 98732441600.0
 1715041599488.0
 1034929504256.0
 683906760704.0
 460022808576.0
 67188434141184.0
 316910201733120.0
 568578105409536.0
 715503702114304.0
 635794813353984.0
 636693669478400.0
 342860830343168.0
 87255850942464.0
 1920362348544.0
 1487132295168.0
 1434562854912.0
 1919437242368.0
 1246992924672.0
 10359095.0
 5060494.5
 2120327.25
 3654558.0
 2654731.5
 1200575.625
 1685293.0
 1795093.875
 850134.3125
 884598.6875
 751506.375
 645306.4375
 560803.1875
 492801.15625
 435062.0625
 388631.34375
 350018.125
 318660.40625
 288670.21875
 268830.5625
 248062.328125
 231170.5
 217924.84375
 206281.59375
 195703.546875
 188024.015625
 180487.96875
 175228.59375
 170923.4375
 167340.8125
 163990.078125
 163969.015625
 164650.359375
 156082.421875
 157506.671875
 160408.875
 162664.3125
 167684.8125
 172867.5625
 179054.390625
 187617.375
 196931.234375
 208085.53125
 220741.515625
 237464.390625
 256999.15625
 278006.75
 306215.65625
 336474.4375
 376636.4375
 422252.46875
 478238.15625
 551564.4375
 635224.125
 745577.5
 890726.375
 1531601.375
 891527.0
 1616524.125
 1370882.75
 2007202.125
 4484003.5
 3541742.0
 10090160.0
 15864659.0
 11438847.0
 92344623104.0
 1624031887360.0
 1060502634496.0
 862320459776.0
 1122964996096.0
 57208935022592.0
 296431730556928.0
 567067954642944.0
 695740611428352.0
 612766339563520.0
 602828858982400.0
 325824809009152.0
 85503680446464.0
 2362567557120.0
 1720969068544.0
 1681636065280.0
 2158746402816.0
 1385855975424.0
 12169788.0
 4674270.5
 1523060.125
 3463669.25
 2673697.75
 1047669.6875
 1506951.75
 1760379.625
 820953.3125
 828693.5625
 709118.6875
 608521.5
 528839.5
 463744.0
 409887.5
 368302.75
 330670.8125
 301706.28125
 272985.625
 253730.03125
 235323.53125
 218593.828125
 206785.5
 195073.53125
 185171.625
 179593.9375
 170761.0
 166294.203125
 162388.484375
 159064.734375
 157224.015625
 156388.984375
 156296.1875
 187186.25
 189590.734375
 193493.21875
 194552.859375
 201905.859375
 207631.125
 215278.4375
 225490.15625
 236500.640625
 250490.234375
 264924.03125
 285658.65625
 309699.875
 332826.59375
 367772.09375
 404678.53125
 452025.0
 505426.53125
 573566.875
 659072.75
 761777.6875
 893554.5
 1051919.5
 1806188.875
 1089140.5
 1951447.5
 1664569.0
 2441001.5
 5340306.5
 4311138.5
 11862107.0
 18574854.0
 13796837.0
 94681923584.0
 1644208717824.0
 1016218255360.0
 762550550528.0
 848496885760.0
 65300535967744.0
 319866280083456.0
 621547467309056.0
 803764810285056.0
 724055183327232.0
 701943282401280.0
 370521057263616.0
 92720936779776.0
 1684636696576.0
 1410009268224.0
 1391390097408.0
 1876901756928.0
 1223043710976.0
 11179078.0
 4537019.0
 2347163.75
 4511174.0
 3074960.5
 1277342.75
 1950645.875
 2115837.0
 953309.6875
 1004142.375
 855772.0
 734897.625
 639807.6875
 560170.125
 496656.59375
 443505.46875
 400380.46875
 363745.5625
 328785.5
 305934.53125
 283684.90625
 263716.09375
 248189.5
 235494.890625
 222589.359375
 215201.84375
 206352.078125
 200586.5
 195185.375
 190881.4375
 189543.40625
 186970.046875
 187874.859375
 172075.734375
 174038.078125
 177977.140625
 179237.859375
 186088.9375
 190208.53125
 198277.375
 207467.96875
 217431.0625
 230373.578125
 244101.265625
 261864.75
 284259.0625
 305868.75
 337712.625
 371752.0625
 416772.625
 466288.15625
 530624.375
 606080.75
 700441.9375
 820627.1875
 984681.4375
 1684455.375
 976791.1875
 1769302.625
 1504709.5
 2189076.25
 4905349.5
 3862046.0
 11014474.0
 17330588.0
 12432146.0
 100663992320.0
 1763502587904.0
 1116843933696.0
 829492494336.0
 837455642624.0
 65308198961152.0
 330707717062656.0
 631990344744960.0
 799639158652928.0
 699801570115584.0
 675732372062208.0
 353371420622848.0
 90017389084672.0
 2387199131648.0
 1767166312448.0
 1734975160320.0
 2253545013248.0
 1449300852736.0
 13156279.0
 5055146.5
 1766596.625
 3882251.5
 2968424.0
 1177880.25
 1680816.875
 1948370.375
 914893.5625
 921815.1875
 784923.125
 675070.25
 586320.875
 516576.3125
 454424.28125
 407519.34375
 367923.40625
 334345.6875
 303036.8125
 281384.875
 260395.625
 241833.140625
 229222.03125
 216851.875
 205595.921875
 198490.3125
 189312.75
 184458.078125
 179217.671875
 175554.734375
 173651.703125
 171789.671875
 172836.890625
 161672.71875
 163180.703125
 165674.8125
 167404.90625
 173536.265625
 178526.125
 185282.609375
 193743.09375
 203197.765625
 214918.078125
 227687.953125
 245755.296875
 265004.25
 286372.28125
 316345.375
 347381.875
 389660.84375
 436172.9375
 495423.65625
 569231.625
 655177.9375
 768097.6875
 900065.875
 1544106.0
 948258.4375
 1692855.625
 1449677.375
 2125521.25
 4600964.0
 3750399.0
 10210075.0
 16032029.0
 11732975.0
 90625777664.0
 1585100357632.0
 1003099914240.0
 773484183552.0
 958229839872.0
 56739730817024.0
 282396884729856.0
 540751247179776.0
 683919720579072.0
 621616119676928.0
 614868658946048.0
 331591037485056.0
 84961264664576.0
 1802204086272.0
 1434037780480.0
 1391984771072.0
 1856646283264.0
 1208201248768.0
 11363993.0
 4083386.5
 1845386.375
 3726488.25
 2630654.5
 1102640.875
 1640557.5
 1787013.375
 819145.125
 860931.4375
 731841.3125
 630823.0
 547236.5
 479731.21875
 424972.28125
 379125.125
 342526.03125
 310645.625
 282715.375
 261736.6875
 244137.765625
 226266.46875
 212995.140625
 202461.90625
 191652.515625
 184466.46875
 176634.078125
 171812.484375
 168091.140625
 163987.65625
 162777.828125
 161165.265625
 160221.53125
 144619.96875
 145534.375
 148583.25
 150112.640625
 154888.109375
 160318.875
 167257.734375
 173534.390625
 182222.03125
 193533.671875
 205722.609375
 220677.84375
 239838.78125
 257713.28125
 283530.8125
 311917.125
 349183.84375
 391915.0
 443766.09375
 510514.75
 589128.75
 692025.3125
 835528.75
 1422732.5
 817784.125
 1481254.75
 1260133.5
 1830358.75
 4131616.5
 3240681.75
 9326404.0
 14720417.0
 11028212.0
 81158537216.0
 1412229365760.0
 879256731648.0
 652949061632.0
 592171499520.0
 57738432348160.0
 284264323088384.0
 532195236118528.0
 660556709101568.0
 564187373764608.0
 553752348065792.0
 297099396644864.0
 76453420990464.0
 1791705088000.0
 1384001699840.0
 1385531703296.0
 1792829816832.0
 1151915393024.0
 9324573.0
 4380032.0
 1607519.0
 3272910.75
 2467572.0
 986942.9375
 1426636.875
 1639569.0
 762524.0625
 773105.0625
 660526.5625
 565903.4375
 492708.15625
 432646.90625
 381330.34375
 341370.0
 308182.53125
 280383.75
 253116.25
 234980.25
 218918.9375
 203153.296875
 191431.21875
 181729.078125
 172162.109375
 165729.0
 159269.640625
 154199.515625
 150475.65625
 147554.140625
 145777.890625
 144312.03125
 144320.4375
 193863.03125
 195908.328125
 198481.296875
 200961.9375
 207604.46875
 213847.578125
 221641.15625
 231596.25
 243450.703125
 258032.328125
 274884.625
 295021.71875
 317770.96875
 343150.90625
 377735.375
 417121.25
 465981.59375
 520363.0625
 591865.8125
 677205.25
 782527.0
 918382.125
 1065615.875
 1846272.375
 1130629.125
 2019220.375
 1715885.0
 2528363.75
 5467206.0
 4450536.0
 12016048.0
 18726444.0
 13464158.0
 98381496320.0
 1720393662464.0
 1096776876032.0
 843818139648.0
 1009670684672.0
 60993828814848.0
 313966001651712.0
 629141439250432.0
 827212580257792.0
 773923041968128.0
 733024484327424.0
 375840407814144.0
 93477958320128.0
 2020374347776.0
 1550666301440.0
 1488129228800.0
 1997252198400.0
 1298441043968.0
 12443724.0
 4684039.0
 2399138.25
 4698639.5
 3222437.25
 1332319.125
 2027146.0
 2195902.75
 993319.75
 1047132.6875
 891941.375
 766616.0
 663703.0
 584351.875
 514822.25
 460922.28125
 416135.8125
 376895.28125
 342282.375
 316152.25
 294317.28125
 273536.59375
 258131.140625
 244728.625
 231023.265625
 222943.328125
 213821.125
 207756.609375
 202066.046875
 198746.75
 194874.234375
 192899.328125
 193371.046875
 174653.421875
 175404.828125
 179546.828125
 181619.234375
 187062.234375
 193454.359375
 200892.71875
 210800.03125
 220473.890625
 232982.75
 248919.78125
 266165.5
 287982.375
 311664.0625
 341828.78125
 376293.34375
 423652.3125
 472633.9375
 536629.625
 616950.6875
 713100.6875
 834507.6875
 1016781.0625
 1730987.75
 974237.1875
 1778189.25
 1513839.625
 2195225.25
 5003296.0
 3882456.25
 11327403.0
 17848446.0
 12774971.0
 91480170496.0
 1597001039872.0
 1007444426752.0
 790847750144.0
 791502454784.0
 64930254422016.0
 327478304309248.0
 649149745725440.0
 836464543793152.0
 707897583468544.0
 668288992411648.0
 343541783986176.0
 85734971146240.0
 1970052005888.0
 1557673541632.0
 1585695162368.0
 2077388832768.0
 1339029716992.0
 12713141.0
 4570619.0
 1741226.625
 4087245.25
 3063529.0
 1142842.125
 1689303.25
 2009224.25
 929601.5625
 928857.375
 794719.9375
 682227.125
 591228.5
 521595.53125
 459692.875
 410035.59375
 371462.46875
 337474.65625
 304988.03125
 283985.25
 264079.3125
 244899.640625
 230721.25
 219033.125
 207646.140625
 200932.203125
 192070.109375
 185142.71875
 181805.796875
 178357.265625
 176159.90625
 173619.734375
 174222.078125
 163229.28125
 164356.375
 167513.90625
 169560.09375
 176420.234375
 179950.25
 186700.109375
 196735.15625
 203928.6875
 216725.21875
 231459.28125
 247552.46875
 268355.375
 288496.90625
 317663.59375
 349981.21875
 392084.125
 437670.4375
 497143.875
 571121.25
 658436.6875
 769727.375
 888361.875
 1531683.125
 972705.1875
 1710685.75
 1472721.125
 2168373.0
 4581646.5
 3808873.5
 10043990.0
 15657812.0
 11188102.0
 94620319744.0
 1659743502336.0
 1050059997184.0
 757582397440.0
 868222042112.0
 54453944188928.0
 274691344302080.0
 527833159958528.0
 684661072199680.0
 652305808490496.0
 637330733924352.0
 334821960187904.0
 84611283550208.0
 1924467261440.0
 1470458232832.0
 1387267358720.0
 1860016013312.0
 1211180908544.0
 11957227.0
 4095683.0
 1969253.375
 3783529.5
 2639599.75
 1152513.5
 1699647.625
 1797749.25
 829411.5
 876180.125
 749429.625
 642796.625
 557707.375
 488910.3125
 432964.28125
 385026.28125
 346803.03125
 316979.28125
 287165.53125
 265523.59375
 246625.21875
 229755.9375
 215398.125
 205141.1875
 194780.34375
 186464.453125
 179322.828125
 175116.25
 169622.21875
 166628.484375
 164249.9375
 162601.984375
 163642.375
 116382.046875
 117305.703125
 120308.34375
 120461.640625
 125557.4296875
 129158.9765625
 133110.953125
 140705.578125
 146679.625
 155305.03125
 165413.171875
 178523.1875
 193899.21875
 208244.96875
 229494.734375
 253074.4375
 282737.40625
 317155.96875
 360514.34375
 414391.25
 479887.0625
 560658.125
 699505.5
 1177949.0
 644657.375
 1175995.75
 1012115.5
 1453962.0
 3372134.25
 2587953.0
 7784624.0
 12367142.0
 9346270.0
 63534387200.0
 1105016782848.0
 700540846080.0
 589137903616.0
 580293361664.0
 49031472480256.0
 241886988075008.0
 457678392393728.0
 555474999050240.0
 440870138544128.0
 433200702685184.0
 236627817398272.0
 61771842846720.0
 1419258626048.0
 1133386924032.0
 1180309389312.0
 1515451580416.0
 971735891968.0
 7783535.0
 3578998.25
 1133193.25
 2583368.0
 2043485.625
 763795.1875
 1089252.625
 1333358.0
 626114.0
 615092.125
 524258.53125
 453200.5
 391045.59375
 345333.875
 304445.5625
 272072.71875
 245452.875
 223850.875
 204032.484375
 187972.96875
 175346.625
 163328.234375
 152989.75
 146538.25
 137683.65625
 133420.3125
 127820.4296875
 123147.0703125
 120982.859375
 118918.25
 117554.65625
 115650.1640625
 116896.8046875
 189168.09375
 190863.78125
 194392.828125
 196689.34375
 202938.28125
 209764.984375
 215698.78125
 226850.703125
 237182.671875
 250327.84375
 267072.21875
 286209.59375
 309996.15625
 333599.9375
 365595.34375
 404854.9375
 452379.46875
 504729.34375
 573116.3125
 658888.4375
 756778.1875
 886920.9375
 1005180.125
 1763756.125
 1115293.5
 1987777.875
 1676016.5
 2503512.75
 5275588.0
 4377011.5
 11371719.0
 17532806.0
 12573281.0
 93387702272.0
 1629220503552.0
 1020681060352.0
 713594241024.0
 779828658176.0
 54844446474240.0
 281797132812288.0
 566248152760320.0
 768916452278272.0
 781089194901504.0
 733378684911616.0
 367301811503104.0
 89556846116864.0
 1813254897664.0
 1379611967488.0
 1279270715392.0
 1726989205504.0
 1124770512896.0
 10674811.0
 4397389.5
 2742965.5
 4799760.5
 3066481.75
 1340545.5
 2108142.25
 2162272.5
 950712.9375
 1038535.25
 881680.5
 758201.5
 657285.1875
 574827.1875
 507752.3125
 452908.5
 409230.0
 371380.25
 338002.53125
 311222.0
 287768.78125
 269223.25
 253023.46875
 240305.1875
 227385.0625
 217490.6875
 209682.984375
 202801.75
 198741.671875
 194224.78125
 192332.484375
 189312.109375
 189541.21875
 179474.703125
 179006.40625
 184059.90625
 187074.8125
 191615.1875
 198815.5
 204863.234375
 215527.671875
 226178.203125
 239043.25
 255513.9375
 273940.8125
 295746.40625
 321162.03125
 351350.5625
 389097.4375
 434102.96875
 485438.03125
 552705.8125
 635119.5625
 732265.125
 860209.875
 1086002.25
 1828607.25
 961258.125
 1785562.5
 1504790.375
 2170982.5
 5158422.5
 3839229.0
 11963156.0
 18828492.0
 13280737.0
 80531955712.0
 1405304176640.0
 915660537856.0
 835635118080.0
 904907718656.0
 64574246092800.0
 337791326093312.0
 711214103527424.0
 925078376153088.0
 730720301481984.0
 657793568735232.0
 326889826680832.0
 80125886464000.0
 1832646475776.0
 1471595020288.0
 1573607047168.0
 2053864423424.0
 1319285686272.0
 12801410.0
 4510926.5
 1562985.125
 4329930.0
 3329900.25
 1102541.875
 1655492.75
 2137757.25
 982733.0625
 948347.375
 810176.5
 697387.5625
 603983.8125
 532423.6875
 468887.0625
 419029.125
 379513.34375
 343023.8125
 314153.28125
 290406.5
 268301.1875
 251574.09375
 235805.375
 223215.203125
 213981.84375
 202945.484375
 195995.546875
 191065.984375
 184068.21875
 182561.75
 180256.140625
 178150.84375
 180210.8125
 215604.421875
 217204.296875
 221085.84375
 224137.421875
 230589.921875
 238650.578125
 246671.953125
 257941.53125
 270721.375
 285715.0625
 304716.125
 326521.90625
 353552.28125
 382137.34375
 417232.46875
 461250.6875
 514659.21875
 574262.625
 652492.6875
 751227.625
 861526.75
 1011723.125
 1135891.875
 1942011.75
 1321282.5
 2261933.75
 1991549.75
 2928973.75
 5880789.5
 5114504.0
 12582962.0
 19388754.0
 13585693.0
 116006109184.0
 2039170727936.0
 1292567052288.0
 922875330560.0
 936961703936.0
 60422333923328.0
 309823472140288.0
 623530265804800.0
 871442958778368.0
 884055935549440.0
 831489562378240.0
 412036144037888.0
 99666536431616.0
 2116834164736.0
 1593125896192.0
 1434816348160.0
 2007580147712.0
 1321726377984.0
 15053452.0
 4843680.5
 3105774.25
 5215895.0
 3403106.0
 1625616.5
 2369893.0
 2348375.5
 1090578.125
 1177942.5
 1004142.3125
 861635.8125
 746214.4375
 654477.6875
 576798.3125
 515455.4375
 464875.78125
 420666.71875
 383908.03125
 355136.5
 327307.5
 307140.96875
 287577.4375
 272352.59375
 259378.1875
 247904.21875
 238398.46875
 232820.140625
 224371.625
 221173.21875
 219631.109375
 214722.921875
 216661.90625
 87373.7578125
 88326.5859375
 89830.40625
 91332.0859375
 94654.59375
 97976.5703125
 100286.4140625
 106104.3984375
 111316.078125
 117397.328125
 125258.8828125
 135353.15625
 146798.4375
 158424.78125
 173342.125
 192632.140625
 215003.390625
 240546.78125
 273716.46875
 316396.90625
 364076.5
 427742.71875
 555048.25
 980674.75
 433017.40625
 896150.1875
 683120.375
 1018561.5
 2738466.0
 1803393.125
 6566913.0
 10519659.0
 7090334.5
 52231196672.0
 911403646976.0
 587472633856.0
 501755084800.0
 579394469888.0
 42797264535552.0
 215043257925632.0
 419968076218368.0
 502951508443136.0
 408442565033984.0
 392147526221824.0
 209195861278720.0
 54032810901504.0
 1374988009472.0
 1177575358464.0
 1286603669504.0
 1533863919616.0
 962274918400.0
 8594027.0
 2455915.25
 388967.9375
 2106757.5
 1708033.25
 429027.34375
 752313.6875
 1107193.125
 472138.5625
 446679.9375
 384525.875
 332317.65625
 287572.84375
 254150.78125
 225163.546875
 201384.328125
 182532.453125
 166168.625
 151161.125
 140019.03125
 129433.6015625
 121859.8203125
 113889.2890625
 108719.109375
 103279.828125
 99176.40625
 95799.8203125
 92413.28125
 90596.1796875
 88887.7890625
 88817.5703125
 86681.6484375
 87441.8359375
 139814.578125
 140132.921875
 142853.65625
 145114.921875
 148598.921875
 153854.203125
 157572.03125
 166152.484375
 174850.859375
 183088.46875
 195772.65625
 209835.703125
 226678.359375
 245592.109375
 266496.0
 296688.71875
 329186.75
 367979.25
 416548.78125
 478132.9375
 547083.25
 642799.375
 690681.375
 1169338.375
 905342.8125
 1475861.875
 1344955.625
 1981925.125
 3631387.75
 3439731.5
 7506770.5
 11467318.0
 9093832.0
 73159892992.0
 1277020733440.0
 802234105856.0
 622987706368.0
 499229392896.0
 36989759913984.0
 181135615197184.0
 331054502117376.0
 456000033259520.0
 521081639141376.0
 509845065170944.0
 260149474230272.0
 64178630950912.0
 1148724183040.0
 810071293952.0
 659489292288.0
 1004568707072.0
 676712808448.0
 5858970.0
 4138165.5
 2906912.75
 3442409.0
 1976250.125
 1222343.75
 1711166.5
 1447585.0
 688103.6875
 780847.6875
 663641.3125
 567918.9375
 490264.71875
 428841.90625
 379642.84375
 337491.5
 304091.28125
 275156.125
 250984.640625
 231570.40625
 213176.34375
 200427.703125
 186873.96875
 176974.484375
 168519.59375
 160102.109375
 153677.40625
 150392.46875
 145668.296875
 142962.96875
 141300.5625
 138316.921875
 140079.703125
 136499.015625
 136795.765625
 139819.5625
 142031.375
 144766.734375
 151458.859375
 155307.3125
 162919.046875
 172380.265625
 180257.078125
 193933.96875
 207911.546875
 225636.40625
 244722.390625
 265887.0625
 295996.9375
 327030.5625
 369732.4375
 419850.5625
 482297.5625
 555428.1875
 651575.625
 828267.375
 1547439.75
 629405.5625
 1404260.375
 960794.25
 1517672.375
 4299040.0
 2654074.0
 10069533.0
 15762509.0
 9878067.0
 55119757312.0
 949998845952.0
 625363058688.0
 496170696704.0
 667837988864.0
 50027556765696.0
 270137320013824.0
 604407729225728.0
 787476415250432.0
 693182488641536.0
 612727886184448.0
 299221580251136.0
 72102157746176.0
 1496203657216.0
 1327486861312.0
 1459700236288.0
 1688444600320.0
 1044428881920.0
 9176048.0
 2734120.0
 898614.1875
 4055659.75
 2798565.25
 589264.0
 1342196.125
 1896765.75
 719628.75
 721159.75
 615229.4375
 531167.3125
 460628.96875
 403820.0625
 358315.5625
 318557.40625
 290247.8125
 260055.5625
 239138.5625
 222627.046875
 203370.40625
 191308.4375
 179067.03125
 170763.484375
 162792.828125
 154614.0
 149884.65625
 144505.828125
 141315.796875
 139020.21875
 137436.296875
 135395.796875
 136087.890625
 276293.75
 277490.9375
 282076.65625
 288634.71875
 293967.53125
 305550.65625
 312985.0625
 328854.6875
 347832.09375
 364068.5625
 388052.71875
 418785.625
 452580.09375
 490025.90625
 534167.375
 593849.4375
 657742.1875
 738695.0
 838372.75
 964126.625
 1109016.375
 1300250.75
 1576550.875
 2391786.5
 1728216.75
 2688951.25
 2701302.0
 3675382.25
 6986582.5
 6496984.5
 15395690.0
 23919810.0
 18685226.0
 113657200640.0
 2003240747008.0
 1384060944384.0
 1535015518208.0
 1191883046912.0
 72131727589376.0
 387481312690176.0
 832393384558592.0
 1170519785209856.0
 929727476924416.0
 812543790546944.0
 378847186911232.0
 88512665747456.0
 1870118256640.0
 1264971546624.0
 1167157624832.0
 1959171457024.0
 1336720359424.0
 15728657.0
 8241686.0
 4522037.0
 6052321.5
 4504067.0
 2414279.75
 2799397.75
 2814674.0
 1549977.625
 1510684.875
 1283172.5
 1099633.5
 953523.75
 834610.0625
 738199.9375
 659117.875
 594202.25
 536058.6875
 490025.6875
 453257.84375
 417706.8125
 390790.375
 368014.0625
 347038.875
 329625.78125
 315966.71875
 304777.375
 295045.65625
 288043.5
 281641.0
 279840.40625
 274822.46875
 275550.40625
 275664.625
 277844.3125
 283557.84375
 288378.9375
 294409.78125
 305494.90625
 312840.78125
 328990.6875
 347234.5625
 363786.71875
 389769.15625
 417027.1875
 449337.84375
 488927.90625
 531887.3125
 588156.125
 651744.5
 732310.25
 833332.5625
 949372.0
 1092555.375
 1281354.625
 1324860.25
 2634722.0
 1617297.875
 3110487.75
 2298307.25
 3747226.5
 8133516.0
 6479784.0
 16837286.0
 25341044.0
 14877018.0
 137163399168.0
 2408898363392.0
 1478775668736.0
 700844081152.0
 990620680192.0
 65423970140160.0
 345010461474816.0
 770470022479872.0
 1176228736270336.0
 1483464121516032.0
 1332900553293824.0
 614496137641984.0
 140154136166400.0
 2608094248960.0
 2253465321472.0
 2184939831296.0
 2549288009728.0
 1590746677248.0
 20776324.0
 3236575.25
 3796740.75
 8467928.0
 4522854.0
 1599253.0
 3404881.5
 3451820.0
 1248645.875
 1526625.5
 1300615.75
 1116653.75
 966107.1875
 847222.8125
 747512.125
 667005.4375
 601682.75
 545338.1875
 495450.90625
 458872.25
 421497.3125
 394731.5
 370565.5625
 350388.4375
 334087.71875
 319140.625
 307536.0625
 296210.59375
 289551.09375
 284026.15625
 280053.96875
 276258.71875
 276914.09375
 75118.1328125
 75372.5
 77948.859375
 78856.015625
 80677.34375
 84469.4140625
 86583.2109375
 90941.296875
 96961.1640625
 101426.5234375
 108829.109375
 117254.8671875
 127551.7421875
 138681.71875
 151296.71875
 168351.546875
 186683.984375
 211558.921875
 239246.203125
 275909.75
 317546.0625
 375887.75
 531109.5
 870839.25
 356600.65625
 725678.5625
 596297.3125
 825568.5
 2338914.25
 1488626.375
 5872714.5
 9493126.0
 6170091.5
 41599102976.0
 732440363008.0
 477022912512.0
 530125586432.0
 582249152512.0
 39642418118656.0
 209077565128704.0
 429242051461120.0
 526932626112512.0
 353575230242816.0
 307468622102528.0
 153582762459136.0
 38856673984512.0
 1257997991936.0
 1032252686336.0
 1091592060928.0
 1440202620928.0
 934200147968.0
 9668745.0
 2596334.0
 162635.71875
 1745514.125
 1634486.25
 379762.15625
 532964.25
 954152.5
 453188.28125
 375899.75
 324224.1875
 280604.03125
 243172.25
 215357.984375
 191175.625
 171107.65625
 155786.71875
 140558.671875
 128708.796875
 120453.9375
 110088.3125
 104280.7890625
 97443.171875
 92757.890625
 88682.453125
 84803.09375
 82176.4296875
 78973.828125
 77914.8515625
 76349.3515625
 75843.9375
 74551.140625
 75311.5546875
 45226.6953125
 45579.46484375
 46291.5390625
 47663.98828125
 48284.2421875
 49706.8671875
 51289.94140625
 53796.64453125
 56943.80078125
 59702.62109375
 63361.484375
 68198.546875
 73690.578125
 79877.375
 86635.2421875
 96750.6953125
 106244.0546875
 120233.140625
 135137.71875
 155725.453125
 178654.03125
 209635.3125
 229152.578125
 341448.59375
 325455.8125
 470541.5625
 497309.8125
 686391.5625
 1092065.25
 1203152.75
 2225622.5
 3465840.5
 3408278.0
 28484804608.0
 497727406080.0
 343522738176.0
 335489073152.0
 233900261376.0
 14653362012160.0
 65883309342720.0
 99533778321408.0
 119731507953664.0
 131697278451712.0
 142048023805952.0
 81701166383104.0
 21981460168704.0
 393382395904.0
 256386940928.0
 216644009984.0
 369842749440.0
 252948545536.0
 1711339.0
 2409985.0
 1320673.75
 941175.5625
 555994.0625
 503330.6875
 572659.0625
 400024.71875
 233551.96875
 255123.09375
 215625.59375
 185129.265625
 159709.296875
 139107.53125
 123674.3046875
 109417.8046875
 99416.8046875
 89081.2578125
 81577.1328125
 75434.4765625
 68619.1328125
 65033.38671875
 61222.5234375
 56852.6953125
 54985.06640625
 51967.60546875
 50203.01171875
 48297.109375
 47515.77734375
 46048.96484375
 45921.86328125
 45501.390625
 45225.51953125
 135451.546875
 135525.828125
 138247.359375
 141688.375
 143545.640625
 148666.75
 153443.984375
 160749.390625
 168926.5625
 178428.828125
 188823.5625
 204156.765625
 217375.078125
 236711.203125
 258942.6875
 285453.9375
 317495.1875
 356368.71875
 401844.46875
 461301.71875
 530054.5625
 620255.375
 661068.75
 1376619.25
 706746.3125
 1516449.25
 993017.25
 1697161.125
 4118082.0
 2932134.25
 8576800.0
 12858181.0
 7735602.5
 50867638272.0
 874299326464.0
 489850535936.0
 186569637888.0
 295444119552.0
 32106983981056.0
 174985758900224.0
 409494295150592.0
 614346484875264.0
 751733160542208.0
 662152826322944.0
 304729842253824.0
 69384882094080.0
 1039494610944.0
 919546953728.0
 889260474368.0
 1000727707648.0
 619079073792.0
 6208167.5
 1834326.0
 2024189.25
 4738855.0
 2412801.0
 666375.4375
 1755546.0
 1890330.0
 612098.625
 756291.75
 644976.0
 551813.75
 478080.71875
 418556.46875
 369540.53125
 328117.25
 296421.28125
 266679.8125
 245014.78125
 223718.53125
 208153.625
 193660.453125
 183149.15625
 171802.453125
 163179.1875
 156984.59375
 149846.0
 145921.28125
 142309.828125
 137984.65625
 136806.703125
 135578.5625
 134334.28125
 247135.625
 251031.46875
 254664.421875
 261264.21875
 265920.34375
 275392.5
 284734.09375
 299016.46875
 315629.75
 331214.3125
 352714.65625
 380726.5625
 409856.96875
 445610.40625
 487794.4375
 540045.125
 600525.875
 676635.3125
 767402.0
 879785.625
 1017918.125
 1192962.0
 1582534.625
 2674553.25
 1208613.875
 2405287.0
 1930511.0
 2769966.25
 7293229.5
 4917276.5
 17184500.0
 26896526.0
 17493984.0
 76675915776.0
 1331255967744.0
 921997475840.0
 983137124352.0
 1180022996992.0
 77992227241984.0
 450861809532928.0
 1090076658368512.0
 1498775948361728.0
 1116408230445056.0
 885004049580032.0
 392835593404416.0
 88912517136384.0
 2020798758912.0
 1659656601600.0
 1777756667904.0
 2428273688576.0
 1574512623616.0
 17604364.0
 5590975.0
 1834580.625
 6908994.0
 5194861.5
 1344022.875
 2240148.0
 3255241.25
 1434640.625
 1322960.25
 1130517.125
 969640.25
 843066.3125
 738386.8125
 655443.5625
 583023.125
 528101.75
 477807.09375
 437718.15625
 403238.40625
 373779.78125
 350325.71875
 329957.15625
 311173.0
 295945.71875
 284229.25
 274210.75
 263435.1875
 258662.53125
 254014.5625
 251319.546875
 248605.984375
 248275.6875
 347704.34375
 352040.34375
 357697.0625
 364554.21875
 374090.59375
 385079.1875
 400270.71875
 417534.53125
 439665.5
 465457.875
 493187.25
 533122.0625
 574022.5
 621012.5625
 680357.625
 753992.3125
 839230.9375
 943320.1875
 1069822.125
 1229142.625
 1417731.125
 1662247.5
 2138954.0
 3285919.75
 1991526.125
 3304492.25
 3180701.75
 4295016.0
 9205857.0
 7624106.5
 21087050.0
 32856546.0
 23514354.0
 121441247232.0
 2150740525056.0
 1621213184000.0
 1698284044288.0
 1648852205568.0
 96791257153536.0
 541250000257024.0
 1273796166156288.0
 1798680495521792.0
 1277287169261568.0
 1021103040364544.0
 450349466910720.0
 100568697667584.0
 2331008303104.0
 1694379409408.0
 1807433596928.0
 2795093622784.0
 1877233631232.0
 24556034.0
 9265675.0
 4076641.75
 8101453.0
 6473238.0
 2642962.75
 3178342.75
 3880270.0
 2050947.625
 1882076.0
 1600558.625
 1373156.5
 1192666.375
 1042984.5
 925423.125
 824162.8125
 745666.0625
 672948.375
 615966.25
 569585.5625
 526529.5
 491289.5
 465197.3125
 436728.1875
 416408.5
 398198.71875
 384187.09375
 372120.71875
 363797.75
 356283.1875
 352892.375
 350259.34375
 347129.0625
 269037.15625
 272085.96875
 277787.53125
 282082.53125
 288697.0625
 298063.0
 309051.15625
 323907.75
 340547.71875
 358856.59375
 382070.65625
 411498.8125
 442197.96875
 481478.6875
 523904.34375
 583411.8125
 647100.5625
 726564.4375
 821671.1875
 941883.0625
 1087167.25
 1277909.375
 1531245.5
 2389333.0
 1656939.625
 2663646.0
 2586884.75
 3566935.75
 7006471.5
 6285301.0
 15337419.0
 23656928.0
 16888394.0
 111879020544.0
 1985754693632.0
 1416300068864.0
 1413156569088.0
 1286719406080.0
 64976551149568.0
 356449569996800.0
 823781572476928.0
 1214187523014656.0
 1014545296392192.0
 856847653273600.0
 383313348919296.0
 86278569721856.0
 1829200986112.0
 1313137623040.0
 1375474548736.0
 2043631632384.0
 1344340361216.0
 19362674.0
 6451213.5
 3854593.5
 6299602.0
 4576454.0
 2188166.0
 2720182.25
 2866611.25
 1506269.75
 1473690.25
 1256524.375
 1075284.5
 935036.0625
 816611.6875
 722458.125
 645056.3125
 582529.8125
 525142.125
 480021.34375
 443226.5
 409732.21875
 382350.34375
 361379.96875
 339458.6875
 324722.28125
 309296.96875
 298530.1875
 290857.46875
 283948.25
 277279.46875
 274214.65625
 269215.8125
 270146.125
 125522.8125
 127491.8515625
 129315.953125
 131869.78125
 135294.921875
 138671.734375
 143599.078125
 150278.15625
 157742.203125
 166450.265625
 177473.25
 190466.359375
 205047.765625
 221907.96875
 242219.984375
 267662.84375
 296965.65625
 334360.5625
 377007.6875
 432044.09375
 496958.34375
 583877.375
 601611.1875
 1033785.6875
 847730.625
 1374564.125
 1255426.875
 1852979.625
 3311257.0
 3233009.0
 6633303.5
 9960824.0
 6793975.5
 66264195072.0
 1184285589504.0
 805278777344.0
 638837981184.0
 483227992064.0
 24038233604096.0
 125826494365696.0
 272801105707008.0
 443725855588352.0
 555304676753408.0
 514633920151552.0
 237725651304448.0
 54300856287232.0
 945847533568.0
 751221800960.0
 674671951872.0
 862671470592.0
 562676236288.0
 8786403.0
 2186603.0
 2393828.5
 3229247.75
 1805114.875
 1065837.25
 1549669.25
 1300772.375
 611337.125
 702562.3125
 598617.625
 512767.59375
 444075.375
 388780.40625
 342947.28125
 306282.65625
 275025.4375
 249006.625
 227382.03125
 210492.90625
 192997.015625
 180863.96875
 170557.421875
 159326.15625
 153226.265625
 144809.28125
 140221.234375
 135206.0
 132600.09375
 129327.3125
 127784.765625
 126086.7890625
 125386.8515625
 14548.5576171875
 15004.2939453125
 15226.2275390625
 15409.083984375
 15834.416015625
 15941.4345703125
 16763.48828125
 17681.794921875
 18418.921875
 19559.359375
 20742.751953125
 22151.59375
 24070.1484375
 26040.859375
 27796.169921875
 31163.572265625
 34152.421875
 38325.0625
 43610.7734375
 49404.22265625
 56404.140625
 66792.546875
 48878.9375
 154404.65625
 89999.4921875
 211607.3125
 108939.078125
 227443.765625
 530065.0
 381269.875
 1001342.0
 1492277.25
 532913.5625
 16177533952.0
 278544384000.0
 151290052608.0
 42637484032.0
 60963950592.0
 4646398590976.0
 21582640578560.0
 38640763797504.0
 55674876723200.0
 131903436881920.0
 136261343903744.0
 69671332085760.0
 17198901886976.0
 311046897664.0
 318615846912.0
 307648069632.0
 270870020096.0
 148045004800.0
 1410654.875
 41029.265625
 257496.609375
 609943.9375
 206371.375
 56258.46875
 257800.0625
 220781.28125
 40911.56640625
 81890.1953125
 70667.953125
 59975.99609375
 52625.6796875
 45937.30859375
 40585.921875
 36313.734375
 32652.90625
 29303.16015625
 27045.365234375
 25088.376953125
 22750.3046875
 21361.25390625
 20540.056640625
 18720.21875
 18004.896484375
 17369.951171875
 16361.595703125
 15905.7041015625
 15643.728515625
 15064.400390625
 15106.25390625
 14910.5302734375
 14740.029296875
 23768.892578125
 23979.369140625
 24123.828125
 24491.310546875
 25263.62109375
 26639.00390625
 26942.212890625
 29073.68359375
 30128.255859375
 32336.013671875
 34128.64453125
 36933.59375
 39376.3515625
 43601.3984375
 47374.26171875
 52466.9375
 59215.3125
 65676.5703125
 75734.2109375
 86577.7421875
 100216.453125
 118178.390625
 190265.515625
 298416.375
 94738.9765625
 207155.453125
 168239.015625
 218730.6875
 740631.4375
 403091.5
 1936312.0
 3102483.25
 2030890.875
 5204931072.0
 90340917248.0
 82258116608.0
 116233986048.0
 151922851840.0
 12230087147520.0
 69256838381568.0
 161382557286400.0
 195815108771840.0
 103619156246528.0
 80739622191104.0
 41347012624384.0
 10493026631680.0
 250765148160.0
 243043336192.0
 266211491840.0
 340722679808.0
 215523819520.0
 1314685.125
 900506.125
 57268.7265625
 617827.5
 601196.3125
 114000.3359375
 153002.71875
 342104.4375
 159782.65625
 118572.53125
 101542.3125
 88563.34375
 76442.703125
 67833.4453125
 60536.234375
 53292.96484375
 48721.60546875
 43903.16015625
 40544.9921875
 37068.48828125
 35180.63671875
 32296.146484375
 30733.560546875
 29186.3203125
 27524.478515625
 26862.447265625
 25717.10546875
 25047.078125
 24172.314453125
 24109.4140625
 23420.419921875
 23744.6953125
 23651.16796875
 117461.7734375
 118269.421875
 120575.515625
 122571.15625
 125154.421875
 130494.3515625
 134162.921875
 141667.453125
 148732.828125
 157027.1875
 167606.109375
 179746.1875
 192356.40625
 211407.390625
 230132.390625
 254687.21875
 285321.4375
 317729.46875
 363921.8125
 414542.4375
 483087.96875
 564497.375
 800770.125
 1143055.25
 641852.625
 1022375.6875
 1070439.5
 1354428.0
 3020679.75
 2449303.25
 7313438.0
 11673273.0
 9813070.0
 27831642112.0
 482786246656.0
 479144411136.0
 646033899520.0
 566457925632.0
 37240566710272.0
 212478105485312.0
 505900372590592.0
 676182873866240.0
 372214985654272.0
 274964494155776.0
 120060844703744.0
 26962527518720.0
 730831585280.0
 503422287872.0
 569320407040.0
 897415839744.0
 622201143296.0
 7261597.0
 4465075.5
 1298966.75
 2499107.25
 2405243.0
 975526.875
 936785.375
 1321624.375
 793421.1875
 631311.9375
 535443.25
 459673.59375
 398118.34375
 350872.34375
 308352.6875
 275083.09375
 249284.484375
 224719.171875
 206570.125
 189817.546875
 176933.796875
 163793.5625
 155422.03125
 147241.484375
 139898.703125
 134341.671875
 129562.203125
 125737.53125
 121423.3046875
 120174.5625
 117291.421875
 117236.6875
 116818.1953125
 211636.625
 213619.75
 216305.71875
 219728.453125
 226756.296875
 233687.640625
 241610.15625
 254003.359375
 266334.28125
 281905.25
 297307.75
 321154.90625
 344579.8125
 376433.6875
 410185.46875
 451200.90625
 506342.5
 565476.375
 642130.3125
 734751.5625
 849427.75
 991988.9375
 1287451.125
 1945534.25
 1197510.5
 1944638.375
 1912310.875
 2571719.75
 5251742.0
 4637416.5
 11492295.0
 16989534.0
 18205276.0
 362857792.0
 195580411904.0
 902917980160.0
 999605600256.0
 956859154432.0
 59269898567680.0
 337111278419968.0
 811065784926208.0
 1133084716040192.0
 768324283662336.0
 593371408105472.0
 256948901511168.0
 56384502628352.0
 1275760345088.0
 902467223552.0
 1035826954240.0
 4486013952.0
 1047774953472.0
 25212860.0
 5174857.5
 2874410.5
 4131987.75
 4064316.5
 2542128.75
 2011004.375
 1696334.875
 1368560.375
 1166553.5
 989932.1875
 847633.5625
 732890.5
 644842.1875
 567675.0
 504604.25
 456098.59375
 411213.3125
 376663.25
 346913.96875
 323737.5625
 298520.90625
 282257.4375
 268672.1875
 253043.78125
 244000.40625
 234277.203125
 227140.296875
 219366.609375
 217959.8125
 212045.25
 211727.96875
 211116.21875
 594.35546875
 516.8754272460938
 502.8536376953125
 557.210693359375
 546.7938842773438
 631.8082275390625
 615.6414794921875
 566.205322265625
 722.6805419921875
 634.9692993164062
 733.9885864257812
 761.284912109375
 800.8206176757812
 922.74609375
 1046.876708984375
 1021.6198120117188
 1269.245361328125
 1371.404052734375
 1533.4669189453125
 1740.38720703125
 2170.8017578125
 2301.442626953125
 3302.4287109375
 4678.86279296875
 3053.178955078125
 5062.2275390625
 4424.232421875
 6643.9013671875
 12688.3935546875
 11409.484375
 27076.341796875
 38342.65234375
 50954.8046875
 34518780.0
 205342464.0
 2219037696.0
 2191228416.0
 2099785856.0
 141726760960.0
 804122132480.0
 1945408503808.0
 2770596790272.0
 2044257763328.0
 1601918861312.0
 692344455168.0
 151979917312.0
 3145836032.0
 2315355648.0
 2619084800.0
 969724480.0
 2534741248.0
 81131.9140625
 21663.357421875
 8519.4384765625
 9997.47265625
 9989.646484375
 7659.93408203125
 5368.19189453125
 3620.584716796875
 3465.369384765625
 3088.69140625
 2407.0078125
 2374.0078125
 1768.318359375
 1638.30126953125
 1472.7088623046875
 1181.6781005859375
 1110.3050537109375
 1025.0162353515625
 956.5117797851562
 863.82763671875
 822.8867797851562
 772.7694702148438
 670.396484375
 677.68408203125
 635.890869140625
 597.4003295898438
 608.6820068359375
 556.8560180664062
 531.1038208007812
 562.2766723632812
 514.416015625
 578.138671875
 516.4632568359375
